Nb
as received
Sample dimentions in mm: 0.7000 x 0.000 x 14.18
Photocell sensitivity 0.056 V/mm, Optic arm 328 mm
User: Iva
C 2 550 2.0 290 15 1.000  20 3.0E-1
20.11.2013, 14:40

T[K]   F[Hz]  Theta[rad]   Modulus  MaxStrain Center[mm] Time[s] TOven[K]
535.07 1.000576 5.829408E-3 0.616466  1.116E-4 8.11735 26 550.00
535.29 1.000576 6.204006E-3 0.616607  1.116E-4 8.11567 56 549.55
535.46 1.000576 6.087243E-3 0.616575  1.116E-4 8.11399 86 549.00
535.65 1.000576 6.029480E-3 0.616463  1.117E-4 8.11384 116 548.35
535.76 1.000576 5.949094E-3 0.616498  1.117E-4 8.11252 145 547.50
535.79 1.000576 6.106804E-3 0.616337  1.117E-4 8.11295 175 546.70
535.80 1.000576 6.208598E-3 0.616412  1.115E-4 8.11353 205 545.85
535.79 1.000576 6.310483E-3 0.616576  1.115E-4 8.11206 234 544.90
535.70 1.000576 5.943278E-3 0.616547  1.116E-4 8.11248 264 544.00
535.60 1.000576 6.080000E-3 0.616632  1.115E-4 8.11154 294 543.05
535.45 1.000576 5.935774E-3 0.616543  1.116E-4 8.11045 323 542.05
535.27 1.000576 5.912649E-3 0.616689  1.115E-4 8.10808 353 541.00
535.02 1.000576 5.762370E-3 0.616546  1.115E-4 8.10723 383 540.00
534.75 1.000576 5.790484E-3 0.616852  1.115E-4 8.10744 413 539.00
534.41 1.000576 5.853142E-3 0.616804  1.115E-4 8.10814 442 538.05
534.07 1.000576 5.747962E-3 0.616831  1.115E-4 8.10566 472 537.05
533.66 1.000576 6.015966E-3 0.616967  1.115E-4 8.10538 502 536.15
533.19 1.000576 5.990382E-3 0.617031  1.115E-4 8.10473 531 535.25
532.69 1.000576 5.627130E-3 0.617182  1.114E-4 8.10488 561 534.25
532.15 1.000576 5.915125E-3 0.617312  1.115E-4 8.10471 591 533.25
531.58 1.000576 5.855994E-3 0.617401  1.113E-4 8.10404 620 532.25
531.00 1.000576 5.675590E-3 0.617613  1.113E-4 8.10556 650 531.30
530.40 1.000576 5.855051E-3 0.617739  1.113E-4 8.10491 680 530.35
529.75 1.000576 5.504096E-3 0.617820  1.113E-4 8.10479 709 529.30
529.06 1.000576 5.720819E-3 0.618016  1.113E-4 8.10371 739 528.25
528.42 1.000576 5.903858E-3 0.618123  1.113E-4 8.10308 769 527.25
527.68 1.000576 5.988732E-3 0.618288  1.113E-4 8.10280 799 526.25
526.93 1.000576 5.702461E-3 0.618424  1.112E-4 8.10124 828 525.20
526.16 1.000576 5.655802E-3 0.618522  1.112E-4 8.10175 858 524.25
525.41 1.000576 5.932370E-3 0.618529  1.112E-4 8.10119 888 523.20
524.63 1.000576 5.858714E-3 0.618941  1.111E-4 8.09864 917 522.20
523.84 1.000576 6.012777E-3 0.619153  1.111E-4 8.09872 947 521.15
523.06 1.000576 6.054595E-3 0.619334  1.110E-4 8.09890 977 520.25
522.28 1.000576 6.240533E-3 0.619571  1.110E-4 8.09821 1006 519.25
521.49 1.000576 6.141655E-3 0.619765  1.109E-4 8.09769 1036 518.25
520.62 1.000576 6.196707E-3 0.620274  1.109E-4 8.09662 1066 517.25
519.89 1.000576 6.020508E-3 0.620072  1.110E-4 8.09533 1096 516.25
519.04 1.000576 6.277164E-3 0.620621  1.108E-4 8.09332 1125 515.30
518.22 1.000576 6.198340E-3 0.620843  1.108E-4 8.09318 1155 514.35
517.36 1.000576 6.359742E-3 0.620894  1.107E-4 8.09377 1185 513.45
516.52 1.000576 6.216507E-3 0.621250  1.107E-4 8.09073 1214 512.50
515.69 1.000576 5.955576E-3 0.621417  1.107E-4 8.08999 1244 511.55
514.86 1.000576 6.250767E-3 0.621561  1.106E-4 8.08961 1274 510.50
514.02 1.000576 6.391805E-3 0.621791  1.106E-4 8.08942 1303 509.50
513.17 1.000576 6.251637E-3 0.622057  1.106E-4 8.08768 1333 508.40
512.33 1.000576 6.231160E-3 0.622346  1.105E-4 8.08742 1363 507.40
511.52 1.000576 6.107284E-3 0.622465  1.105E-4 8.08735 1393 506.40
510.64 1.000576 6.430680E-3 0.622774  1.104E-4 8.08599 1422 505.30
509.81 1.000576 6.399345E-3 0.623064  1.104E-4 8.08593 1452 504.25
508.91 1.000576 6.213325E-3 0.623268  1.102E-4 8.08318 1482 503.25
508.05 1.000576 6.304328E-3 0.623397  1.103E-4 8.08225 1511 502.20
507.19 1.000576 6.533310E-3 0.623595  1.102E-4 8.08140 1541 501.15
506.27 1.000576 6.360360E-3 0.623754  1.103E-4 8.07973 1571 500.15
505.33 1.000576 6.214047E-3 0.623905  1.103E-4 8.07905 1600 499.15
504.40 1.000576 6.373554E-3 0.624274  1.102E-4 8.07776 1630 498.20
503.48 1.000576 6.449944E-3 0.624390  1.101E-4 8.07753 1660 497.20
502.58 1.000576 6.468907E-3 0.624659  1.101E-4 8.07557 1690 496.25
501.59 1.000576 6.605040E-3 0.624913  1.100E-4 8.07439 1719 495.20
500.66 1.000576 6.524211E-3 0.625068  1.099E-4 8.07132 1749 494.25
499.73 1.000576 6.647665E-3 0.625196  1.100E-4 8.07003 1779 493.25
498.81 1.000576 6.381259E-3 0.625463  1.100E-4 8.07005 1808 492.25
497.90 1.000576 6.637252E-3 0.625560  1.098E-4 8.06721 1838 491.35
496.98 1.000576 6.584988E-3 0.625695  1.098E-4 8.06660 1868 490.35
496.05 1.000576 6.821769E-3 0.625731  1.098E-4 8.06607 1897 489.35
495.13 1.000576 6.878068E-3 0.625931  1.098E-4 8.06437 1927 488.45
494.21 1.000576 6.640483E-3 0.626073  1.097E-4 8.06420 1957 487.40
493.26 1.000576 6.867812E-3 0.626306  1.098E-4 8.06257 1987 486.45
492.32 1.000576 6.998775E-3 0.626540  1.097E-4 8.06198 2016 485.45
491.39 1.000576 6.905256E-3 0.626722  1.098E-4 8.06090 2046 484.45
490.47 1.000576 6.867961E-3 0.626889  1.097E-4 8.05994 2076 483.45
489.56 1.000576 6.980736E-3 0.627256  1.096E-4 8.05915 2105 482.45
488.63 1.000576 7.324003E-3 0.627465  1.095E-4 8.05826 2135 481.45
487.70 1.000576 7.202317E-3 0.627729  1.095E-4 8.05887 2165 480.45
486.78 1.000576 7.209062E-3 0.627811  1.095E-4 8.05844 2194 479.45
485.86 1.000576 7.341212E-3 0.628162  1.095E-4 8.05573 2224 478.45
484.93 1.000576 7.514998E-3 0.628408  1.092E-4 8.05710 2254 477.45
484.03 1.000576 7.662512E-3 0.628708  1.094E-4 8.05874 2283 476.45
483.11 1.000576 7.699620E-3 0.628880  1.090E-4 8.05342 2313 475.45
482.20 1.000576 7.619463E-3 0.628971  1.087E-4 8.05131 2343 474.45
481.29 1.000576 7.692922E-3 0.629192  1.083E-4 8.04250 2373 473.45
480.34 1.000576 7.789234E-3 0.629476  1.093E-4 8.05516 2402 472.45
479.45 1.000576 7.866926E-3 0.629557  1.089E-4 8.04889 2432 471.50
478.51 1.000576 7.785299E-3 0.629669  1.088E-4 8.04525 2462 470.55
477.57 1.000576 8.089882E-3 0.629879  1.092E-4 8.04561 2491 469.55
476.67 1.000576 8.104894E-3 0.630165  1.090E-4 8.04558 2521 468.55
475.78 1.000576 8.183951E-3 0.630164  1.079E-4 8.04007 2551 467.55
474.88 1.000576 8.805817E-3 0.630305  1.087E-4 8.04041 2580 466.55
473.98 1.000576 8.553081E-3 0.630394  1.091E-4 8.04176 2610 465.55
473.09 1.000576 8.662809E-3 0.630543  1.086E-4 8.03912 2640 464.60
472.18 1.000576 8.763669E-3 0.630712  1.084E-4 8.03678 2670 463.60
471.28 1.000576 9.253900E-3 0.631193  1.073E-4 8.03045 2699 462.65
470.39 1.000576 9.381733E-3 0.631202  1.089E-4 8.03643 2729 461.65
469.50 1.000576 9.219703E-3 0.631341  1.075E-4 8.02565 2759 460.65
468.63 1.000576 9.616150E-3 0.631323  1.087E-4 8.03206 2788 459.65
467.73 1.000576 9.732213E-3 0.631615  1.087E-4 8.03668 2818 458.70
466.78 1.000576 1.004777E-2 0.631557  1.090E-4 8.02762 2848 457.75
465.89 1.000576 1.010510E-2 0.631631  1.074E-4 8.02291 2877 456.75
465.00 1.000576 1.022495E-2 0.631693  1.075E-4 8.02022 2907 455.75
464.11 1.000576 1.075456E-2 0.631776  1.090E-4 8.02850 2937 454.85
463.22 1.000576 1.112332E-2 0.632218  1.086E-4 8.02297 2967 453.85
462.37 1.000576 1.106590E-2 0.632385  1.088E-4 8.02344 2996 452.90
461.51 1.000576 1.132144E-2 0.632555  1.083E-4 8.02106 3026 451.90
460.60 1.000576 1.161257E-2 0.632805  1.085E-4 8.02085 3056 450.90
459.72 1.000576 1.179720E-2 0.633063  1.081E-4 8.01455 3085 449.90
458.82 1.000576 1.219165E-2 0.633251  1.087E-4 8.01622 3115 448.85
457.92 1.000576 1.257935E-2 0.633770  1.085E-4 8.01713 3145 447.80
457.02 1.000576 1.252084E-2 0.633945  1.085E-4 8.01625 3174 446.75
456.15 1.000576 1.327558E-2 0.634231  1.103E-4 8.02062 3204 445.75
455.31 1.000576 1.340522E-2 0.634427  1.063E-4 8.00647 3234 444.75
454.47 1.000576 1.382464E-2 0.634714  1.090E-4 8.01385 3263 443.75
453.53 1.000576 1.425300E-2 0.635192  1.079E-4 8.01066 3293 442.75
452.65 1.000576 1.448634E-2 0.635372  1.062E-4 8.00266 3323 441.75
451.78 1.000576 1.468664E-2 0.635935  1.068E-4 7.99242 3353 440.75
450.97 1.000576 1.503148E-2 0.636237  1.084E-4 8.00847 3382 439.75
450.01 1.000576 1.532512E-2 0.636640  1.073E-4 8.00179 3412 438.75
449.16 1.000576 1.574584E-2 0.637049  1.071E-4 7.99524 3442 437.75
448.24 1.000576 1.624596E-2 0.637599  1.074E-4 7.99413 3471 436.85
447.38 1.000576 1.657601E-2 0.637949  1.084E-4 8.00453 3501 435.85
446.51 1.000576 1.690976E-2 0.638444  1.124E-4 8.02136 3531 434.95
445.68 1.000576 1.744649E-2 0.638891  1.074E-4 7.99577 3560 433.95
444.81 1.000576 1.779128E-2 0.639380  1.082E-4 7.99624 3590 432.95
443.97 1.000576 1.832992E-2 0.639769  1.060E-4 7.98206 3620 431.95
443.10 1.000576 1.849365E-2 0.640195  1.072E-4 7.98346 3650 431.00
442.25 1.000576 1.880357E-2 0.640780  1.077E-4 7.99125 3679 430.05
441.41 1.000576 1.923087E-2 0.641336  1.072E-4 7.99202 3709 429.05
440.59 1.000576 1.957728E-2 0.642014  1.074E-4 7.99153 3739 428.05
439.76 1.000576 1.994035E-2 0.642550  1.072E-4 7.98635 3768 427.00
438.85 1.000576 2.026890E-2 0.643101  1.069E-4 7.98367 3798 426.05
438.05 1.000576 2.066143E-2 0.643724  1.064E-4 7.98699 3828 424.95
437.20 1.000576 2.074873E-2 0.644308  1.069E-4 7.97450 3857 423.95
436.33 1.000576 2.115001E-2 0.645065  1.066E-4 7.99147 3887 422.95
435.49 1.000576 2.141676E-2 0.645958  1.060E-4 7.98052 3917 421.95
434.68 1.000576 2.171891E-2 0.646490  1.061E-4 7.98323 3947 421.00
433.85 1.000576 2.194473E-2 0.647030  1.054E-4 7.97662 3976 420.05
433.00 1.000576 2.202002E-2 0.647820  1.059E-4 7.97091 4006 419.15
432.17 1.000576 2.222797E-2 0.648376  1.061E-4 7.96947 4036 418.15
431.35 1.000576 2.239008E-2 0.649077  1.061E-4 7.97879 4065 417.25
430.52 1.000576 2.235613E-2 0.649826  1.062E-4 7.98010 4095 416.20
429.70 1.000576 2.234266E-2 0.650513  1.058E-4 7.96762 4125 415.20
428.87 1.000576 2.237356E-2 0.651328  1.054E-4 7.95725 4154 414.20
428.03 1.000576 2.234873E-2 0.652007  1.061E-4 7.95412 4184 413.15
427.18 1.000576 2.214293E-2 0.652685  1.043E-4 7.96774 4214 412.15
426.42 1.000576 2.248908E-2 0.653594  1.052E-4 7.96688 4244 411.20
425.53 1.000576 2.207263E-2 0.654000  1.052E-4 7.95857 4273 410.15
424.72 1.000576 2.200681E-2 0.654789  1.052E-4 7.95473 4303 409.15
423.92 1.000576 2.198012E-2 0.655677  1.048E-4 7.95596 4333 408.15
423.12 1.000576 2.151806E-2 0.656237  1.049E-4 7.96197 4362 407.15
422.26 1.000576 2.110209E-2 0.656916  1.038E-4 7.94994 4392 406.15
421.40 1.000576 2.102981E-2 0.657751  1.050E-4 7.95592 4422 405.15
420.59 1.000576 2.087007E-2 0.658154  1.040E-4 7.94630 4451 404.25
419.77 1.000576 2.072779E-2 0.658766  1.047E-4 7.95203 4481 403.20
418.97 1.000576 2.005122E-2 0.659446  1.045E-4 7.96270 4511 402.25
418.15 1.000576 1.961413E-2 0.660121  1.040E-4 7.94844 4540 401.35
417.30 1.000576 1.931019E-2 0.660514  1.038E-4 7.94627 4570 400.40
416.48 1.000576 1.875675E-2 0.661225  1.029E-4 7.95889 4600 399.45
415.66 1.000576 1.850826E-2 0.661566  1.043E-4 7.93000 4629 398.45
414.86 1.000576 1.796532E-2 0.662183  1.033E-4 7.93948 4659 397.45
414.04 1.000576 1.745872E-2 0.662635  1.035E-4 7.93543 4689 396.55
413.23 1.000576 1.725511E-2 0.663053  1.032E-4 7.92803 4718 395.55
412.41 1.000576 1.660764E-2 0.663631  1.037E-4 7.92419 4748 394.55
411.60 1.000576 1.611186E-2 0.663945  1.032E-4 7.93463 4777 393.60
410.77 1.000576 1.574868E-2 0.664466  1.029E-4 7.92788 4807 392.65
410.01 1.000576 1.530579E-2 0.664793  1.032E-4 7.91204 4837 391.65
409.15 1.000576 1.480099E-2 0.665206  1.034E-4 7.93928 4866 390.75
408.36 1.000576 1.442406E-2 0.665697  1.030E-4 7.92934 4896 389.80
407.57 1.000576 1.409976E-2 0.665699  1.037E-4 7.92756 4925 388.85
406.77 1.000576 1.362213E-2 0.666107  1.030E-4 7.92483 4955 387.85
405.97 1.000576 1.297837E-2 0.666562  1.034E-4 7.94254 4985 386.85
405.20 1.000576 1.302642E-2 0.666930  1.023E-4 7.92459 5014 385.95
404.36 1.000576 1.267863E-2 0.667240  1.029E-4 7.92232 5044 384.95
403.56 1.000576 1.168746E-2 0.667324  1.013E-4 7.93107 5073 383.95
402.76 1.000576 1.162705E-2 0.667716  1.029E-4 7.91350 5103 383.00
401.98 1.000576 1.142637E-2 0.667894  1.029E-4 7.91325 5133 382.05
401.19 1.000576 1.102625E-2 0.667976  1.017E-4 7.91369 5162 381.05
400.40 1.000576 1.059738E-2 0.668293  1.015E-4 7.91974 5192 380.15
399.62 1.000576 1.059019E-2 0.668591  1.020E-4 7.91282 5221 379.25
398.83 1.000576 1.003558E-2 0.668799  1.037E-4 7.89398 5251 378.30
398.05 1.000576 9.847486E-3 0.669514  1.018E-4 7.90338 5281 377.40
397.25 1.000576 9.495593E-3 0.669663  1.019E-4 7.90389 5310 376.55
396.50 1.000576 9.211848E-3 0.669960  1.021E-4 7.90753 5340 375.70
395.75 1.000576 8.829547E-3 0.670145  1.020E-4 7.90076 5369 374.80
394.97 1.000576 8.536336E-3 0.670511  1.018E-4 7.92038 5399 374.00
394.18 1.000576 8.273637E-3 0.670481  1.020E-4 7.90176 5429 373.20
393.42 1.000576 8.172149E-3 0.670572  1.016E-4 7.89078 5458 372.35
392.65 1.000576 7.881306E-3 0.670553  1.023E-4 7.88954 5488 371.60
391.88 1.000576 7.677068E-3 0.670846  1.015E-4 7.89609 5517 370.85
391.11 1.000576 7.499059E-3 0.670515  1.029E-4 7.88850 5547 370.10
390.34 1.000576 7.400233E-3 0.670553  1.023E-4 7.88385 5577 369.35
389.58 1.000576 7.165199E-3 0.670493  1.026E-4 7.88681 5606 368.55
388.83 1.000576 7.214779E-3 0.670744  1.014E-4 7.88552 5636 367.85
388.09 1.000576 7.087909E-3 0.671509  1.027E-4 7.87879 5665 367.15
387.37 1.000576 6.671278E-3 0.671520  1.004E-4 7.88738 5695 366.45
386.63 1.000576 6.908622E-3 0.671914  1.000E-4 7.88877 5725 365.75
385.92 1.000576 6.645340E-3 0.671903  1.033E-4 7.85970 5754 365.05
385.20 1.000576 6.494414E-3 0.671682  1.013E-4 7.87890 5784 364.35
384.49 1.000576 6.232372E-3 0.671907  9.984E-5 7.88436 5813 363.70
383.80 1.000576 6.177382E-3 0.672209  1.026E-4 7.86768 5843 363.10
383.09 1.000576 6.062000E-3 0.672554  1.020E-4 7.87039 5873 362.45
382.39 1.000576 5.928851E-3 0.672643  1.010E-4 7.87739 5902 361.85
381.72 1.000576 6.102741E-3 0.672823  1.016E-4 7.86397 5932 361.30
381.05 1.000576 6.079202E-3 0.672856  1.030E-4 7.85392 5961 360.65
380.39 1.000576 5.816404E-3 0.673080  1.021E-4 7.86685 5991 360.10
379.74 1.000576 5.606118E-3 0.673279  1.028E-4 7.86082 6020 359.50
379.09 1.000576 5.609480E-3 0.673383  1.030E-4 7.85703 6050 359.00
378.43 1.000576 5.422709E-3 0.673583  1.020E-4 7.85527 6080 358.40
377.78 1.000576 5.011248E-3 0.673717  1.030E-4 7.84194 6109 357.90
377.14 1.000576 5.322065E-3 0.673877  1.016E-4 7.85250 6139 357.30
376.50 1.000576 5.244884E-3 0.674015  1.025E-4 7.85161 6168 356.80
375.87 1.000576 5.193510E-3 0.674024  1.008E-4 7.86114 6198 356.25
375.24 1.000576 4.666266E-3 0.674220  1.024E-4 7.85163 6228 355.75
374.62 1.000576 5.105951E-3 0.674527  1.023E-4 7.84867 6257 355.20
374.01 1.000576 5.120276E-3 0.674565  1.022E-4 7.84906 6287 354.70
373.39 1.000576 4.972004E-3 0.674616  1.019E-4 7.84938 6316 354.20
372.78 1.000576 4.802245E-3 0.674805  1.015E-4 7.85098 6346 353.70
372.18 1.000576 4.844198E-3 0.674983  1.016E-4 7.84838 6376 353.25
371.59 1.000576 4.780014E-3 0.674934  1.015E-4 7.84789 6405 352.75
371.01 1.000576 4.821402E-3 0.675264  1.017E-4 7.84253 6435 352.35
370.44 1.000576 4.967559E-3 0.675222  1.017E-4 7.84426 6465 351.90
369.86 1.000576 4.808158E-3 0.675472  1.017E-4 7.84213 6494 351.50
369.30 1.000576 4.781126E-3 0.675495  1.017E-4 7.84019 6524 351.15
368.75 1.000576 4.384003E-3 0.675640  1.019E-4 7.83707 6553 350.75
368.21 1.000576 4.635822E-3 0.675810  1.016E-4 7.84026 6583 350.40
367.65 1.000576 4.663684E-3 0.675889  1.014E-4 7.83819 6613 350.00
367.15 1.000576 4.705662E-3 0.675853  1.016E-4 7.83718 6642 349.60
366.56 1.000576 4.621043E-3 0.676240  1.016E-4 7.83734 6672 349.15
366.04 1.000576 4.658188E-3 0.676164  1.016E-4 7.83349 6701 348.75
365.51 1.000576 4.364099E-3 0.676281  1.016E-4 7.83461 6731 348.35
365.01 1.000576 4.482699E-3 0.676225  1.015E-4 7.83407 6761 347.95
364.51 1.000576 4.608560E-3 0.676379  1.014E-4 7.83625 6790 347.55
363.95 1.000576 4.451543E-3 0.676602  1.015E-4 7.83246 6820 347.20
363.44 1.000576 4.315537E-3 0.676680  1.016E-4 7.82853 6849 346.80
362.96 1.000576 4.274956E-3 0.676684  1.014E-4 7.82537 6879 346.45
362.40 1.000576 4.490132E-3 0.676727  1.012E-4 7.82467 6909 346.05
361.96 1.000576 4.415654E-3 0.676787  1.013E-4 7.82739 6938 345.65
361.47 1.000576 4.470576E-3 0.676929  1.011E-4 7.82582 6968 345.30
360.98 1.000576 4.285529E-3 0.676975  1.015E-4 7.82410 6997 344.95
360.48 1.000576 4.374919E-3 0.677075  1.019E-4 7.82500 7027 344.55
360.00 1.000576 4.292611E-3 0.677027  1.014E-4 7.81834 7057 344.20
359.51 1.000576 4.048293E-3 0.677083  1.020E-4 7.82726 7086 343.85
359.04 1.000576 4.088229E-3 0.677330  1.014E-4 7.82447 7116 343.50
358.57 1.000576 4.180245E-3 0.677223  1.014E-4 7.82333 7145 343.15
358.11 1.000576 4.091386E-3 0.677207  1.010E-4 7.82178 7175 342.80
357.68 1.000576 4.060565E-3 0.677364  1.010E-4 7.82041 7205 342.40
357.19 1.000576 4.078488E-3 0.677270  1.021E-4 7.81666 7234 342.10
356.74 1.000576 4.145759E-3 0.677389  9.997E-5 7.81432 7264 341.75
356.30 1.000576 3.931192E-3 0.677394  1.009E-4 7.82086 7293 341.50
355.87 1.000576 3.984353E-3 0.677449  1.013E-4 7.81519 7323 341.10
355.46 1.000576 4.106313E-3 0.677469  1.021E-4 7.80544 7352 340.80
355.01 1.000576 3.916838E-3 0.677592  1.012E-4 7.81224 7382 340.50
354.57 1.000576 3.816118E-3 0.677473  1.007E-4 7.81273 7412 340.20
354.13 1.000576 3.758408E-3 0.677650  1.019E-4 7.81167 7441 339.85
353.77 1.000576 3.884053E-3 0.677741  1.004E-4 7.81808 7471 339.60
353.34 1.000576 3.997630E-3 0.677814  1.012E-4 7.80932 7500 339.30
352.92 1.000576 3.969161E-3 0.677867  1.013E-4 7.81272 7530 339.00
352.51 1.000576 4.130888E-3 0.678009  1.010E-4 7.81232 7560 338.70
352.11 1.000576 4.083907E-3 0.678011  1.008E-4 7.80275 7589 338.40
351.69 1.000576 3.825439E-3 0.678076  9.938E-5 7.80756 7619 338.10
351.29 1.000576 3.894490E-3 0.678182  1.001E-4 7.83206 7648 337.80
350.90 1.000576 3.814259E-3 0.678292  1.036E-4 7.79151 7678 337.55
350.51 1.000576 3.783199E-3 0.678401  1.014E-4 7.79795 7708 337.25
350.12 1.000576 3.892634E-3 0.678524  1.033E-4 7.79708 7737 337.00
349.75 1.000576 3.983660E-3 0.678669  1.016E-4 7.80220 7767 336.70
349.39 1.000576 3.729932E-3 0.678687  1.005E-4 7.80399 7796 336.40
349.02 1.000576 3.752854E-3 0.678730  1.009E-4 7.78981 7826 336.15
348.65 1.000576 3.710289E-3 0.678824  1.003E-4 7.79790 7856 335.90
348.29 1.000576 3.868568E-3 0.678903  1.020E-4 7.79128 7885 335.60
347.93 1.000576 3.982008E-3 0.679134  1.015E-4 7.79165 7915 335.30
347.57 1.000576 3.833593E-3 0.679291  1.010E-4 7.79548 7944 335.00
347.19 1.000576 3.818904E-3 0.679214  1.008E-4 7.78780 7974 334.80
