Nb
as received
Sample dimentions in mm: 0.7000 x 0.000 x 14.18
Photocell sensitivity 0.056 V/mm, Optic arm 328 mm
User: Iva
H 9 380 2.0 390 120 1.000  20 1.0E-1
22.11.2013, 00:57

T[K]   F[Hz]  Theta[rad]   Modulus  MaxStrain Center[mm] Time[s] TOven[K]
367.64 1.000576 3.169036E-3 0.675438  3.398E-5 8.50197 26 380.00
367.65 1.000576 3.013721E-3 0.675331  3.389E-5 8.49861 56 380.25
367.64 1.000576 3.250158E-3 0.675242  3.390E-5 8.49658 86 380.75
367.65 1.000576 2.998680E-3 0.674898  3.395E-5 8.49523 116 381.35
367.66 1.000576 2.829065E-3 0.675196  3.396E-5 8.49472 146 382.05
367.68 1.000576 2.500273E-3 0.675204  3.386E-5 8.49469 176 382.80
367.72 1.000576 3.338301E-3 0.675497  3.385E-5 8.49340 206 383.75
367.78 1.000576 2.513781E-3 0.675251  3.387E-5 8.49272 236 384.60
367.85 1.000576 2.954929E-3 0.675188  3.394E-5 8.49321 266 385.60
367.95 1.000576 2.789398E-3 0.675068  3.390E-5 8.49264 296 386.65
368.07 1.000576 3.070978E-3 0.675054  3.380E-5 8.49127 325 387.60
368.20 1.000576 3.165253E-3 0.675404  3.389E-5 8.49173 355 388.45
368.36 1.000576 3.201341E-3 0.674988  3.392E-5 8.49173 385 389.05
368.53 1.000576 3.265508E-3 0.674888  3.395E-5 8.49042 415 389.55
368.72 1.000576 3.008561E-3 0.675370  3.383E-5 8.49189 445 389.85
368.94 1.000576 3.008762E-3 0.675232  3.399E-5 8.49049 475 390.10
369.15 1.000576 2.948070E-3 0.675204  3.393E-5 8.49118 505 390.30
369.37 1.000576 2.990332E-3 0.675023  3.388E-5 8.49126 535 390.40
369.59 1.000576 3.274646E-3 0.674918  3.389E-5 8.49113 565 390.40
369.82 1.000576 2.879992E-3 0.675267  3.395E-5 8.49066 595 390.40
370.03 1.000576 2.919535E-3 0.675187  3.377E-5 8.49002 624 390.40
370.26 1.000576 3.073085E-3 0.674885  3.381E-5 8.49117 654 390.40
370.47 1.000576 2.776874E-3 0.675396  3.376E-5 8.49086 684 390.40
370.67 1.000576 3.134828E-3 0.675046  3.393E-5 8.49087 714 390.35
370.86 1.000576 2.958921E-3 0.675073  3.383E-5 8.49037 744 390.30
371.07 1.000576 3.159651E-3 0.675070  3.384E-5 8.49113 774 390.30
371.24 1.000576 2.726328E-3 0.674980  3.380E-5 8.49001 804 390.30
371.43 1.000576 3.146529E-3 0.674914  3.391E-5 8.48788 834 390.25
371.61 1.000576 3.033418E-3 0.675052  3.401E-5 8.48715 864 390.20
371.77 1.000576 3.194403E-3 0.674926  3.380E-5 8.48810 894 390.20
371.92 1.000576 2.953843E-3 0.674964  3.385E-5 8.48626 923 390.20
372.07 1.000576 2.959290E-3 0.675274  3.394E-5 8.48599 953 390.15
372.21 1.000576 2.995782E-3 0.675247  3.379E-5 8.48575 983 390.10
372.34 1.000576 3.041328E-3 0.674782  3.403E-5 8.48577 1013 390.10
372.47 1.000576 2.963213E-3 0.674697  3.390E-5 8.48540 1043 390.10
372.60 1.000576 2.929351E-3 0.674753  3.386E-5 8.48408 1073 390.10
372.72 1.000576 2.948220E-3 0.674909  3.397E-5 8.48568 1103 390.10
372.84 1.000576 3.436459E-3 0.674759  3.397E-5 8.48300 1133 390.10
372.95 1.000576 2.978136E-3 0.674686  3.398E-5 8.48468 1163 390.10
373.07 1.000576 2.520879E-3 0.674949  3.382E-5 8.48328 1193 390.05
373.17 1.000576 3.355813E-3 0.674616  3.402E-5 8.48446 1222 390.10
373.26 1.000576 3.315621E-3 0.674609  3.382E-5 8.48237 1252 390.05
373.35 1.000576 3.033573E-3 0.674695  3.387E-5 8.48256 1282 390.05
373.44 1.000576 3.186207E-3 0.674684  3.392E-5 8.48233 1312 390.00
373.53 1.000576 3.244346E-3 0.674538  3.395E-5 8.48123 1342 390.00
373.62 1.000576 3.156200E-3 0.674762  3.385E-5 8.48168 1372 390.00
373.70 1.000576 3.054961E-3 0.674784  3.387E-5 8.48171 1402 390.00
373.77 1.000576 3.196411E-3 0.674657  3.393E-5 8.48287 1432 390.00
373.85 1.000576 3.144316E-3 0.674614  3.399E-5 8.48142 1462 390.00
373.92 1.000576 3.385444E-3 0.674527  3.382E-5 8.48259 1492 390.00
373.99 1.000576 3.281495E-3 0.674648  3.392E-5 8.48086 1521 390.00
374.05 1.000576 2.916178E-3 0.674822  3.402E-5 8.48045 1551 390.00
374.12 1.000576 3.187157E-3 0.674654  3.372E-5 8.48076 1581 390.00
374.17 1.000576 3.035071E-3 0.674729  3.381E-5 8.47963 1611 390.00
374.27 1.000576 3.283127E-3 0.674638  3.394E-5 8.48054 1641 390.00
374.34 1.000576 3.392079E-3 0.674706  3.387E-5 8.47947 1671 390.00
374.40 1.000576 3.158260E-3 0.674640  3.401E-5 8.48026 1701 390.00
374.43 1.000576 3.324164E-3 0.674626  3.400E-5 8.48051 1731 390.00
374.48 1.000576 3.088255E-3 0.674602  3.388E-5 8.47952 1761 390.00
374.54 1.000576 3.162579E-3 0.674434  3.397E-5 8.48010 1791 390.00
374.57 1.000576 2.807037E-3 0.674688  3.388E-5 8.47955 1820 390.00
374.63 1.000576 3.196687E-3 0.674598  3.392E-5 8.47993 1850 390.00
374.67 1.000576 2.870936E-3 0.674612  3.382E-5 8.47937 1880 390.00
374.74 1.000576 3.268291E-3 0.674496  3.390E-5 8.47878 1910 390.00
374.79 1.000576 3.275366E-3 0.674462  3.395E-5 8.47871 1940 390.00
374.84 1.000576 3.131603E-3 0.674725  3.382E-5 8.47804 1970 390.00
374.88 1.000576 2.994393E-3 0.674628  3.395E-5 8.47820 2000 390.00
374.92 1.000576 3.432213E-3 0.674381  3.392E-5 8.47788 2030 390.00
374.96 1.000576 3.398376E-3 0.674608  3.388E-5 8.47786 2060 390.00
375.00 1.000576 3.057424E-3 0.674839  3.386E-5 8.47874 2090 390.00
375.05 1.000576 3.012996E-3 0.674212  3.400E-5 8.47750 2119 390.00
375.09 1.000576 3.211172E-3 0.674772  3.381E-5 8.47745 2149 390.00
375.12 1.000576 3.141948E-3 0.674482  3.383E-5 8.47670 2179 390.00
375.17 1.000576 2.950844E-3 0.674525  3.397E-5 8.47829 2209 390.00
375.21 1.000576 3.191916E-3 0.674343  3.405E-5 8.47745 2239 390.00
375.24 1.000576 3.691485E-3 0.674587  3.401E-5 8.47775 2269 390.00
375.28 1.000576 3.399781E-3 0.674770  3.395E-5 8.47714 2299 390.00
375.32 1.000576 3.113030E-3 0.674509  3.399E-5 8.47733 2329 390.00
375.35 1.000576 3.546158E-3 0.674318  3.381E-5 8.47649 2359 390.00
375.40 1.000576 3.246973E-3 0.674409  3.403E-5 8.47803 2389 390.00
375.43 1.000576 3.258256E-3 0.674503  3.401E-5 8.47702 2418 390.00
375.47 1.000576 3.146142E-3 0.674809  3.399E-5 8.47695 2448 390.00
375.50 1.000576 3.429348E-3 0.674596  3.397E-5 8.47629 2478 390.00
375.52 1.000576 3.295320E-3 0.674401  3.398E-5 8.47598 2508 390.00
375.55 1.000576 2.999127E-3 0.674327  3.383E-5 8.47667 2538 390.00
375.59 1.000576 3.597432E-3 0.674620  3.395E-5 8.47630 2568 390.00
375.62 1.000576 3.180187E-3 0.674182  3.396E-5 8.47627 2598 390.00
375.66 1.000576 3.045973E-3 0.674504  3.390E-5 8.47680 2628 390.00
375.68 1.000576 2.970011E-3 0.674358  3.388E-5 8.47612 2658 390.00
375.71 1.000576 3.233215E-3 0.674110  3.397E-5 8.47594 2688 390.00
375.74 1.000576 3.458041E-3 0.674523  3.393E-5 8.47591 2717 390.00
375.76 1.000576 2.548484E-3 0.674338  3.380E-5 8.47591 2747 390.00
375.78 1.000576 2.995382E-3 0.674288  3.384E-5 8.47505 2777 390.00
375.82 1.000576 3.347198E-3 0.674294  3.386E-5 8.47468 2807 390.00
375.85 1.000576 3.254222E-3 0.674347  3.386E-5 8.47635 2837 390.00
375.88 1.000576 3.302534E-3 0.674434  3.399E-5 8.47495 2867 390.00
375.91 1.000576 3.346165E-3 0.674538  3.404E-5 8.47443 2897 390.00
375.93 1.000576 3.177875E-3 0.674456  3.389E-5 8.47480 2927 390.00
375.96 1.000576 2.986147E-3 0.674574  3.391E-5 8.47551 2957 390.00
375.98 1.000576 3.328033E-3 0.674182  3.394E-5 8.47556 2987 390.00
376.01 1.000576 3.198371E-3 0.674441  3.374E-5 8.47627 3016 390.00
376.03 1.000576 3.128504E-3 0.674413  3.409E-5 8.47506 3046 390.00
376.06 1.000576 2.858901E-3 0.674586  3.397E-5 8.47529 3076 390.00
376.07 1.000576 3.274634E-3 0.674413  3.377E-5 8.47507 3106 390.00
376.10 1.000576 3.393249E-3 0.674653  3.394E-5 8.47375 3136 390.00
376.11 1.000576 3.257873E-3 0.674383  3.385E-5 8.47471 3166 390.00
376.14 1.000576 3.271168E-3 0.674459  3.397E-5 8.47394 3196 390.00
376.17 1.000576 3.203336E-3 0.674347  3.402E-5 8.47302 3226 390.00
376.19 1.000576 3.590223E-3 0.674505  3.400E-5 8.47574 3256 390.00
376.20 1.000576 3.410589E-3 0.674154  3.394E-5 8.47429 3286 390.00
376.25 1.000576 3.664113E-3 0.674393  3.386E-5 8.47410 3315 390.00
376.23 1.000576 2.818667E-3 0.674563  3.406E-5 8.47408 3345 390.00
376.27 1.000576 3.493152E-3 0.674255  3.392E-5 8.47395 3375 390.00
376.26 1.000576 3.188730E-3 0.674525  3.382E-5 8.47503 3405 390.00
376.30 1.000576 3.410507E-3 0.674468  3.400E-5 8.47396 3435 390.00
376.29 1.000576 3.372590E-3 0.674563  3.396E-5 8.47362 3465 390.00
376.32 1.000576 3.094142E-3 0.674273  3.398E-5 8.47392 3495 390.00
376.34 1.000576 3.185384E-3 0.674463  3.392E-5 8.47465 3525 390.00
376.35 1.000576 3.411709E-3 0.674403  3.388E-5 8.47326 3555 390.00
376.37 1.000576 3.339036E-3 0.674379  3.385E-5 8.47377 3585 390.00
376.39 1.000576 3.192135E-3 0.674362  3.397E-5 8.47398 3614 390.00
376.41 1.000576 3.196127E-3 0.674256  3.402E-5 8.47388 3644 390.00
376.42 1.000576 3.261368E-3 0.674375  3.387E-5 8.47425 3674 390.00
376.44 1.000576 2.744309E-3 0.674436  3.393E-5 8.47302 3704 390.00
376.45 1.000576 3.255727E-3 0.674306  3.392E-5 8.47279 3734 390.00
376.46 1.000576 3.416713E-3 0.674383  3.388E-5 8.47311 3764 390.00
376.48 1.000576 3.116602E-3 0.674586  3.394E-5 8.47398 3794 390.00
376.50 1.000576 3.304430E-3 0.674304  3.395E-5 8.47322 3824 390.00
376.51 1.000576 2.889597E-3 0.674617  3.398E-5 8.47306 3854 390.00
376.52 1.000576 3.527356E-3 0.674509  3.400E-5 8.47195 3884 390.00
376.53 1.000576 3.215669E-3 0.674542  3.393E-5 8.47342 3913 390.00
376.56 1.000576 3.371406E-3 0.674377  3.391E-5 8.47283 3943 390.00
376.57 1.000576 3.394508E-3 0.674610  3.399E-5 8.47267 3973 390.00
376.58 1.000576 3.329383E-3 0.674415  3.398E-5 8.47204 4003 390.00
376.60 1.000576 3.311579E-3 0.674353  3.370E-5 8.47376 4033 390.00
376.60 1.000576 3.393983E-3 0.674562  3.390E-5 8.47288 4063 390.00
376.61 1.000576 3.470317E-3 0.674391  3.383E-5 8.47258 4093 390.00
376.62 1.000576 2.692613E-3 0.674162  3.384E-5 8.47292 4123 390.00
376.65 1.000576 3.347140E-3 0.674463  3.406E-5 8.47317 4153 390.00
376.67 1.000576 3.479353E-3 0.674643  3.392E-5 8.47224 4183 390.00
376.68 1.000576 3.270838E-3 0.674552  3.400E-5 8.47362 4212 390.00
376.69 1.000576 3.343871E-3 0.674324  3.391E-5 8.47262 4242 390.00
376.69 1.000576 3.357847E-3 0.674426  3.374E-5 8.47288 4272 390.00
376.71 1.000576 3.332018E-3 0.674481  3.396E-5 8.47196 4302 390.00
376.70 1.000576 3.519014E-3 0.674400  3.396E-5 8.47206 4332 390.00
376.71 1.000576 3.447726E-3 0.674430  3.396E-5 8.47248 4362 390.00
376.71 1.000576 3.393258E-3 0.674396  3.391E-5 8.47127 4392 390.00
376.73 1.000576 3.232140E-3 0.674292  3.407E-5 8.47227 4422 390.00
376.74 1.000576 3.300026E-3 0.674476  3.368E-5 8.47242 4452 390.00
376.75 1.000576 3.360348E-3 0.674284  3.400E-5 8.47107 4482 390.00
376.75 1.000576 3.254278E-3 0.674272  3.394E-5 8.47224 4511 390.00
376.76 1.000576 3.543356E-3 0.674508  3.392E-5 8.47134 4541 390.00
376.77 1.000576 3.112806E-3 0.674231  3.412E-5 8.47157 4571 390.00
376.78 1.000576 3.216650E-3 0.674128  3.397E-5 8.47228 4601 390.00
376.77 1.000576 3.077805E-3 0.674471  3.399E-5 8.47162 4631 390.00
376.79 1.000576 3.167731E-3 0.674591  3.381E-5 8.47233 4661 390.00
376.80 1.000576 3.314768E-3 0.674202  3.403E-5 8.47211 4691 390.00
376.81 1.000576 3.158754E-3 0.674636  3.391E-5 8.47237 4721 390.00
376.81 1.000576 3.053884E-3 0.674368  3.390E-5 8.47219 4751 390.00
376.83 1.000576 3.358632E-3 0.674749  3.386E-5 8.47132 4781 390.00
376.83 1.000576 3.430131E-3 0.674263  3.400E-5 8.47080 4810 389.95
376.83 1.000576 3.204469E-3 0.674240  3.397E-5 8.47203 4840 390.00
376.84 1.000576 3.237166E-3 0.674388  3.396E-5 8.47052 4870 390.00
376.85 1.000576 3.249112E-3 0.674308  3.392E-5 8.47271 4900 390.00
376.87 1.000576 3.176190E-3 0.674298  3.406E-5 8.47131 4930 390.00
376.87 1.000576 3.147100E-3 0.674244  3.403E-5 8.47124 4960 390.00
376.88 1.000576 3.300194E-3 0.674271  3.388E-5 8.47171 4990 390.00
376.90 1.000576 3.347334E-3 0.674365  3.403E-5 8.47223 5020 390.00
376.91 1.000576 3.099408E-3 0.674314  3.398E-5 8.47260 5050 390.00
376.91 1.000576 3.349372E-3 0.674392  3.381E-5 8.47211 5080 390.00
376.91 1.000576 2.971478E-3 0.674238  3.401E-5 8.47261 5109 390.00
376.91 1.000576 3.582840E-3 0.674305  3.387E-5 8.47164 5139 390.00
376.92 1.000576 3.481907E-3 0.674335  3.397E-5 8.47162 5169 390.00
376.93 1.000576 3.298268E-3 0.674489  3.401E-5 8.47115 5199 390.00
376.90 1.000576 3.320150E-3 0.674476  3.398E-5 8.47174 5229 390.00
376.93 1.000576 3.255767E-3 0.674226  3.383E-5 8.47111 5259 390.00
376.94 1.000576 3.230037E-3 0.674566  3.387E-5 8.47121 5289 390.00
376.94 1.000576 3.455714E-3 0.674151  3.391E-5 8.47133 5319 390.00
376.95 1.000576 3.272377E-3 0.674454  3.397E-5 8.47163 5349 390.00
376.96 1.000576 3.014316E-3 0.674653  3.380E-5 8.47059 5379 390.00
376.96 1.000576 3.415054E-3 0.674487  3.396E-5 8.47063 5408 390.00
376.97 1.000576 3.156307E-3 0.674590  3.400E-5 8.47163 5438 390.00
376.93 1.000576 3.587906E-3 0.674441  3.399E-5 8.47173 5468 390.00
376.97 1.000576 3.119089E-3 0.674446  3.401E-5 8.46979 5498 390.00
376.98 1.000576 3.345379E-3 0.674353  3.398E-5 8.47144 5528 390.00
376.98 1.000576 3.461803E-3 0.674639  3.404E-5 8.47010 5558 390.00
376.97 1.000576 2.991362E-3 0.674422  3.385E-5 8.47203 5588 390.00
376.98 1.000576 3.358926E-3 0.674363  3.380E-5 8.47095 5618 390.00
376.99 1.000576 3.449741E-3 0.674648  3.396E-5 8.47250 5648 390.00
377.00 1.000576 3.534530E-3 0.674553  3.395E-5 8.47141 5678 390.00
377.00 1.000576 3.445815E-3 0.674471  3.395E-5 8.47169 5707 390.00
377.00 1.000576 3.818124E-3 0.674357  3.379E-5 8.47176 5737 390.00
377.00 1.000576 3.081805E-3 0.674174  3.394E-5 8.47145 5767 390.00
377.00 1.000576 3.195428E-3 0.674751  3.392E-5 8.47192 5797 390.00
377.00 1.000576 3.207897E-3 0.674408  3.385E-5 8.47094 5827 390.00
377.00 1.000576 2.943990E-3 0.674621  3.392E-5 8.47120 5857 390.00
377.00 1.000576 3.291973E-3 0.674516  3.388E-5 8.47019 5887 390.00
377.01 1.000576 3.374778E-3 0.674589  3.396E-5 8.47243 5917 390.00
377.00 1.000576 3.329281E-3 0.674344  3.399E-5 8.47002 5947 390.00
377.01 1.000576 3.288411E-3 0.674428  3.386E-5 8.47073 5977 390.00
377.02 1.000576 3.204542E-3 0.674595  3.395E-5 8.47050 6006 390.00
377.03 1.000576 3.292086E-3 0.674275  3.407E-5 8.47086 6036 390.00
377.03 1.000576 3.674151E-3 0.674466  3.392E-5 8.46967 6066 390.00
377.03 1.000576 3.137804E-3 0.674615  3.382E-5 8.47118 6096 390.00
377.03 1.000576 3.631717E-3 0.674809  3.392E-5 8.47140 6126 390.00
377.03 1.000576 3.665688E-3 0.674686  3.376E-5 8.47051 6156 390.00
377.04 1.000576 3.393348E-3 0.674551  3.395E-5 8.47105 6186 390.00
377.04 1.000576 3.114692E-3 0.674441  3.405E-5 8.46997 6216 390.00
377.05 1.000576 3.455703E-3 0.674270  3.385E-5 8.47188 6246 390.00
377.05 1.000576 3.542589E-3 0.674723  3.389E-5 8.47051 6276 390.00
377.06 1.000576 3.650112E-3 0.674622  3.399E-5 8.47211 6305 390.00
377.06 1.000576 3.221525E-3 0.674540  3.402E-5 8.47089 6335 390.00
377.06 1.000576 3.592188E-3 0.674265  3.386E-5 8.47183 6365 390.00
377.07 1.000576 3.385515E-3 0.674341  3.380E-5 8.47157 6395 390.00
377.07 1.000576 3.437974E-3 0.674590  3.399E-5 8.47195 6425 390.00
377.08 1.000576 3.468685E-3 0.674620  3.404E-5 8.47117 6455 390.00
377.09 1.000576 3.340252E-3 0.674520  3.394E-5 8.47068 6485 390.00
377.08 1.000576 3.195352E-3 0.674517  3.381E-5 8.47150 6515 390.00
377.09 1.000576 3.223876E-3 0.674456  3.393E-5 8.47055 6545 390.00
377.09 1.000576 3.151135E-3 0.674563  3.402E-5 8.47063 6575 390.00
377.07 1.000576 4.175492E-3 0.674529  3.391E-5 8.47096 6604 390.00
377.07 1.000576 3.017140E-3 0.674627  3.384E-5 8.47112 6634 390.00
377.04 1.000576 3.302292E-3 0.674433  3.385E-5 8.47018 6664 390.00
377.08 1.000576 3.658149E-3 0.674694  3.389E-5 8.47066 6694 390.00
377.10 1.000576 3.250701E-3 0.674678  3.394E-5 8.47007 6724 390.00
377.11 1.000576 3.580832E-3 0.674771  3.397E-5 8.47100 6754 390.00
377.11 1.000576 3.139967E-3 0.674535  3.396E-5 8.47015 6784 390.00
377.11 1.000576 3.472126E-3 0.674677  3.386E-5 8.47114 6814 390.00
377.12 1.000576 3.368487E-3 0.674643  3.394E-5 8.47094 6844 390.00
377.10 1.000576 3.450590E-3 0.674689  3.396E-5 8.46979 6874 390.00
377.11 1.000576 3.370428E-3 0.674402  3.386E-5 8.47033 6903 390.00
377.07 1.000576 3.370935E-3 0.674529  3.393E-5 8.47089 6933 390.00
377.08 1.000576 3.656169E-3 0.674605  3.383E-5 8.47047 6963 390.00
377.08 1.000576 3.213484E-3 0.674924  3.392E-5 8.47157 6993 390.00
377.12 1.000576 3.075367E-3 0.674982  3.380E-5 8.47053 7023 390.00
377.12 1.000576 3.459444E-3 0.674730  3.404E-5 8.47081 7053 390.00
377.11 1.000576 3.525193E-3 0.674915  3.394E-5 8.47135 7083 390.00
377.14 1.000576 3.174664E-3 0.674749  3.400E-5 8.47053 7113 390.00
377.14 1.000576 3.259336E-3 0.674719  3.394E-5 8.47036 7143 390.00
377.14 1.000576 3.269515E-3 0.674680  3.400E-5 8.47024 7173 390.00
377.14 1.000576 3.204927E-3 0.674909  3.418E-5 8.47085 7202 390.00
377.11 1.000576 3.597856E-3 0.674755  3.394E-5 8.46988 7232 390.00
377.14 1.000576 3.243778E-3 0.674811  3.401E-5 8.47100 7262 390.00
377.14 1.000576 3.283807E-3 0.674742  3.396E-5 8.47007 7292 390.00
377.13 1.000576 3.483232E-3 0.674792  3.371E-5 8.46952 7322 390.00
377.14 1.000576 2.969744E-3 0.674568  3.415E-5 8.47047 7352 390.00
377.13 1.000576 3.261878E-3 0.674844  3.381E-5 8.47144 7382 390.00
377.14 1.000576 3.511012E-3 0.674609  3.391E-5 8.47004 7412 390.00
377.14 1.000576 3.024363E-3 0.674483  3.391E-5 8.47093 7442 390.00
377.14 1.000576 3.461894E-3 0.675023  3.388E-5 8.47007 7472 390.00
377.15 1.000576 3.437778E-3 0.674834  3.383E-5 8.46987 7501 390.00
