Nb
as received
Sample dimentions in mm: 0.7000 x 0.000 x 14.18
Photocell sensitivity 0.056 V/mm, Optic arm 328 mm
User: Iva
H 13 290 2.0 550 60 7.000  60 3.0E-1
29.11.2013, 08:50

T[K]   F[Hz]  Theta[rad]   Modulus  MaxStrain Center[mm] Time[s] TOven[K]
312.57 7.000840 2.067988E-2 0.679848  1.003E-4 7.69800 66 308.85
312.40 7.000840 2.066035E-2 0.679866  1.003E-4 7.69770 134 308.80
312.16 7.000840 2.062193E-2 0.679886  1.004E-4 7.69767 203 309.35
312.02 7.000840 2.059988E-2 0.679914  1.003E-4 7.69724 271 310.95
311.90 7.000840 2.058133E-2 0.679921  1.005E-4 7.69632 340 313.40
311.84 7.000840 2.055735E-2 0.679941  1.004E-4 7.69702 409 316.20
311.87 7.000840 2.055564E-2 0.679962  1.003E-4 7.69752 477 319.15
311.99 7.000840 2.053737E-2 0.679952  1.003E-4 7.69729 546 322.10
312.23 7.000840 2.050992E-2 0.679946  1.004E-4 7.69635 615 325.05
312.54 7.000840 2.048967E-2 0.679905  1.004E-4 7.69749 683 327.80
312.96 7.000840 2.045697E-2 0.679837  1.004E-4 7.69652 752 330.45
313.47 7.000840 2.042409E-2 0.679771  1.004E-4 7.69635 821 333.00
314.01 7.000840 2.040997E-2 0.679679  1.004E-4 7.69777 889 335.45
314.67 7.000840 2.038695E-2 0.679587  1.004E-4 7.69695 958 337.90
315.44 7.000840 2.039183E-2 0.679462  1.004E-4 7.69655 1027 340.25
316.28 7.000840 2.041015E-2 0.679305  1.004E-4 7.69646 1095 342.60
317.13 7.000840 2.041116E-2 0.679181  1.004E-4 7.69652 1164 344.95
318.05 7.000840 2.040205E-2 0.678986  1.004E-4 7.69692 1232 347.30
319.04 7.000840 2.040268E-2 0.678764  1.005E-4 7.69577 1301 349.60
320.08 7.000840 2.039394E-2 0.678532  1.005E-4 7.69704 1370 351.90
321.19 7.000840 2.040398E-2 0.678334  1.006E-4 7.69621 1438 354.20
322.34 7.000840 2.041515E-2 0.678114  1.007E-4 7.69639 1507 356.40
323.54 7.000840 2.039710E-2 0.677829  1.007E-4 7.69627 1576 358.65
324.80 7.000840 2.042602E-2 0.677526  1.007E-4 7.69611 1644 360.85
326.07 7.000840 2.041061E-2 0.677200  1.008E-4 7.69611 1713 363.10
327.40 7.000840 2.038903E-2 0.676866  1.007E-4 7.69607 1782 365.35
328.77 7.000840 2.041114E-2 0.676515  1.010E-4 7.69723 1850 367.60
330.19 7.000840 2.041075E-2 0.676188  1.009E-4 7.69691 1919 369.90
331.62 7.000840 2.039876E-2 0.675844  1.010E-4 7.69689 1987 372.25
333.15 7.000840 2.041132E-2 0.675493  1.011E-4 7.69818 2056 374.55
334.69 7.000840 2.040319E-2 0.675118  1.010E-4 7.69691 2125 376.85
336.27 7.000840 2.038927E-2 0.674727  1.012E-4 7.69842 2193 379.10
337.88 7.000840 2.039987E-2 0.674355  1.011E-4 7.69667 2262 381.40
339.55 7.000840 2.038412E-2 0.673996  1.013E-4 7.69780 2331 383.70
341.26 7.000840 2.034263E-2 0.673619  1.013E-4 7.69759 2399 386.00
343.01 7.000840 2.032319E-2 0.673267  1.014E-4 7.69780 2468 388.30
344.78 7.000840 2.030819E-2 0.672908  1.015E-4 7.69870 2537 390.55
346.58 7.000840 2.028853E-2 0.672573  1.015E-4 7.69796 2605 392.90
348.47 7.000840 2.028154E-2 0.672239  1.017E-4 7.69916 2674 395.20
350.39 7.000840 2.028959E-2 0.671903  1.017E-4 7.69961 2743 397.50
352.35 7.000840 2.027313E-2 0.671581  1.016E-4 7.69935 2811 399.75
354.36 7.000840 2.027692E-2 0.671246  1.017E-4 7.69952 2880 402.05
356.41 7.000840 2.027203E-2 0.670885  1.017E-4 7.70017 2949 404.40
358.49 7.000840 2.025715E-2 0.670513  1.018E-4 7.70175 3017 406.60
360.60 7.000840 2.025648E-2 0.670151  1.018E-4 7.70175 3086 408.90
362.74 7.000840 2.026324E-2 0.669771  1.019E-4 7.70415 3155 411.20
364.93 7.000840 2.025571E-2 0.669380  1.020E-4 7.70457 3223 413.50
367.13 7.000840 2.026521E-2 0.668983  1.020E-4 7.70527 3292 415.70
369.36 7.000840 2.029210E-2 0.668578  1.021E-4 7.70719 3361 418.00
371.63 7.000840 2.027985E-2 0.668165  1.021E-4 7.70847 3429 420.25
373.91 7.000840 2.026020E-2 0.667775  1.022E-4 7.71019 3498 422.65
376.22 7.000840 2.026061E-2 0.667424  1.023E-4 7.71198 3567 425.00
378.56 7.000840 2.027125E-2 0.667082  1.024E-4 7.71395 3635 427.30
380.93 7.000840 2.032477E-2 0.666726  1.024E-4 7.71579 3704 429.65
383.33 7.000840 2.035830E-2 0.666356  1.025E-4 7.71755 3773 432.00
385.73 7.000840 2.041691E-2 0.665943  1.025E-4 7.72043 3842 434.30
388.14 7.000840 2.048466E-2 0.665526  1.026E-4 7.72245 3910 436.55
390.57 7.000840 2.050261E-2 0.665073  1.026E-4 7.72522 3979 438.85
393.03 7.000840 2.056227E-2 0.664615  1.027E-4 7.72828 4048 441.15
395.50 7.000840 2.062611E-2 0.664170  1.027E-4 7.73075 4116 443.40
398.03 7.000840 2.067458E-2 0.663677  1.028E-4 7.73412 4185 445.55
400.52 7.000840 2.070882E-2 0.663238  1.029E-4 7.73755 4254 447.65
403.13 7.000840 2.083666E-2 0.662823  1.030E-4 7.74063 4322 449.90
405.70 7.000840 2.098794E-2 0.662365  1.031E-4 7.74440 4391 452.20
408.24 7.000840 2.110462E-2 0.661864  1.032E-4 7.74823 4460 454.50
410.87 7.000840 2.128288E-2 0.661375  1.032E-4 7.75162 4529 456.70
413.49 7.000840 2.146320E-2 0.660854  1.033E-4 7.75533 4597 458.95
416.15 7.000840 2.166811E-2 0.660306  1.035E-4 7.75988 4666 461.30
418.82 7.000840 2.185991E-2 0.659696  1.035E-4 7.76388 4735 463.65
421.57 7.000840 2.212701E-2 0.659064  1.036E-4 7.76843 4803 466.00
424.36 7.000840 2.241528E-2 0.658429  1.037E-4 7.77245 4872 468.45
427.13 7.000840 2.275250E-2 0.657784  1.038E-4 7.77722 4941 470.80
429.88 7.000840 2.316613E-2 0.657092  1.038E-4 7.78209 5009 473.15
432.61 7.000840 2.364414E-2 0.656370  1.041E-4 7.78733 5078 475.35
435.26 7.000840 2.421502E-2 0.655594  1.041E-4 7.79232 5147 477.60
437.89 7.000840 2.482285E-2 0.654777  1.043E-4 7.79705 5216 479.80
440.54 7.000840 2.554913E-2 0.653926  1.044E-4 7.80169 5284 482.10
443.15 7.000840 2.628343E-2 0.652942  1.046E-4 7.80685 5353 484.35
445.75 7.000840 2.717635E-2 0.651971  1.048E-4 7.81263 5422 486.65
448.34 7.000840 2.812675E-2 0.650903  1.049E-4 7.81734 5490 489.05
450.93 7.000840 2.909677E-2 0.649711  1.051E-4 7.82297 5559 491.35
453.52 7.000840 3.013674E-2 0.648473  1.053E-4 7.82826 5628 493.65
456.12 7.000840 3.115853E-2 0.647103  1.055E-4 7.83370 5696 495.95
458.73 7.000840 3.214882E-2 0.645602  1.057E-4 7.84003 5765 498.30
461.34 7.000840 3.305882E-2 0.643986  1.060E-4 7.84607 5834 500.55
464.00 7.000840 3.391857E-2 0.642369  1.063E-4 7.85172 5903 502.80
466.63 7.000840 3.470811E-2 0.640649  1.066E-4 7.85713 5971 505.10
469.26 7.000840 3.539789E-2 0.638924  1.068E-4 7.86377 6040 507.30
471.83 7.000840 3.598352E-2 0.637124  1.073E-4 7.86979 6109 509.55
474.43 7.000840 3.644469E-2 0.635257  1.075E-4 7.87640 6177 511.80
477.07 7.000840 3.677387E-2 0.633335  1.079E-4 7.88334 6246 514.10
479.67 7.000840 3.690002E-2 0.631401  1.082E-4 7.88974 6315 516.35
482.25 7.000840 3.688520E-2 0.629514  1.084E-4 7.89622 6383 518.65
484.90 7.000840 3.669314E-2 0.627646  1.088E-4 7.90235 6452 521.00
487.53 7.000840 3.635364E-2 0.625860  1.091E-4 7.90932 6521 523.35
490.19 7.000840 3.586381E-2 0.624163  1.094E-4 7.91644 6590 525.70
492.85 7.000840 3.524219E-2 0.622566  1.097E-4 7.92289 6658 528.00
495.52 7.000840 3.455257E-2 0.621086  1.099E-4 7.92959 6727 530.30
498.14 7.000840 3.382566E-2 0.619716  1.102E-4 7.93628 6796 532.50
500.73 7.000840 3.307687E-2 0.618442  1.105E-4 7.94314 6864 534.80
503.34 7.000840 3.229368E-2 0.617257  1.106E-4 7.95026 6933 537.10
505.98 7.000840 3.151512E-2 0.616183  1.108E-4 7.95725 7002 539.45
508.58 7.000840 3.072341E-2 0.615188  1.109E-4 7.96355 7071 541.75
511.18 7.000840 2.996892E-2 0.614265  1.111E-4 7.97061 7139 544.00
513.78 7.000840 2.926096E-2 0.613420  1.113E-4 7.97747 7208 546.30
516.40 7.000840 2.860771E-2 0.612638  1.114E-4 7.98420 7277 548.40
518.95 7.000840 2.802013E-2 0.611926  1.116E-4 7.99025 7346 549.65
521.37 7.000840 2.749858E-2 0.611302  1.117E-4 7.99602 7415 550.10
523.56 7.000840 2.705125E-2 0.610779  1.118E-4 8.00039 7483 550.25
525.51 7.000840 2.667787E-2 0.610313  1.118E-4 8.00448 7552 550.30
527.21 7.000840 2.634061E-2 0.609927  1.120E-4 8.00948 7621 550.30
528.74 7.000840 2.606547E-2 0.609621  1.119E-4 8.01332 7690 550.30
530.06 7.000840 2.583953E-2 0.609356  1.121E-4 8.01639 7759 550.30
531.19 7.000840 2.564386E-2 0.609123  1.121E-4 8.01934 7827 550.20
532.16 7.000840 2.547426E-2 0.608901  1.121E-4 8.02222 7896 550.20
533.00 7.000840 2.535486E-2 0.608735  1.122E-4 8.02343 7965 550.15
533.71 7.000840 2.522520E-2 0.608569  1.121E-4 8.02577 8034 550.15
534.31 7.000840 2.513261E-2 0.608469  1.122E-4 8.02717 8103 550.10
534.86 7.000840 2.503844E-2 0.608354  1.122E-4 8.02926 8171 550.10
535.32 7.000840 2.497422E-2 0.608273  1.122E-4 8.03072 8240 550.10
535.73 7.000840 2.492970E-2 0.608202  1.123E-4 8.03192 8309 550.05
536.07 7.000840 2.487682E-2 0.608127  1.123E-4 8.03256 8378 550.10
536.36 7.000840 2.482293E-2 0.608063  1.123E-4 8.03354 8447 550.05
536.65 7.000840 2.480100E-2 0.608006  1.123E-4 8.03417 8515 550.00
536.83 7.000840 2.477428E-2 0.607961  1.122E-4 8.03368 8584 550.00
537.09 7.000840 2.476187E-2 0.607913  1.122E-4 8.03488 8653 550.05
537.26 7.000840 2.476544E-2 0.607881  1.124E-4 8.03497 8722 550.00
537.41 7.000840 2.475576E-2 0.607856  1.123E-4 8.03573 8791 550.00
537.55 7.000840 2.476441E-2 0.607821  1.123E-4 8.03534 8859 550.00
537.68 7.000840 2.477042E-2 0.607802  1.123E-4 8.03546 8928 550.00
537.80 7.000840 2.476936E-2 0.607775  1.123E-4 8.03585 8997 550.05
537.89 7.000840 2.477832E-2 0.607761  1.123E-4 8.03639 9066 550.00
537.97 7.000840 2.476977E-2 0.607766  1.124E-4 8.03680 9135 550.00
538.06 7.000840 2.477689E-2 0.607781  1.123E-4 8.03710 9203 550.00
538.12 7.000840 2.478238E-2 0.607804  1.123E-4 8.03786 9272 550.00
538.18 7.000840 2.480179E-2 0.607816  1.123E-4 8.03852 9341 550.00
538.23 7.000840 2.481798E-2 0.607832  1.123E-4 8.03792 9410 550.00
538.28 7.000840 2.482344E-2 0.607842  1.122E-4 8.03787 9479 550.00
538.32 7.000840 2.483687E-2 0.607842  1.122E-4 8.03874 9547 550.00
538.36 7.000840 2.485041E-2 0.607871  1.123E-4 8.03904 9616 550.00
538.41 7.000840 2.487370E-2 0.607890  1.123E-4 8.03895 9685 550.00
538.43 7.000840 2.491224E-2 0.607884  1.123E-4 8.03985 9754 550.00
538.46 7.000840 2.491317E-2 0.607922  1.123E-4 8.04032 9823 550.00
538.50 7.000840 2.492550E-2 0.607919  1.122E-4 8.04008 9891 550.00
538.53 7.000840 2.495371E-2 0.607924  1.123E-4 8.04026 9960 550.00
538.56 7.000840 2.497284E-2 0.607943  1.123E-4 8.04058 10029 550.00
538.58 7.000840 2.500992E-2 0.607954  1.122E-4 8.04116 10098 550.00
538.60 7.000840 2.503216E-2 0.608004  1.122E-4 8.04138 10167 550.00
538.61 7.000840 2.503418E-2 0.608014  1.123E-4 8.04237 10235 550.00
538.62 7.000840 2.506251E-2 0.608026  1.122E-4 8.04184 10304 550.00
538.65 7.000840 2.506860E-2 0.607990  1.122E-4 8.04201 10373 550.00
538.60 7.000840 2.508634E-2 0.608010  1.123E-4 8.04284 10442 550.00
538.65 7.000840 2.509314E-2 0.607999  1.121E-4 8.04236 10511 550.00
538.63 7.000840 2.509509E-2 0.608049  1.121E-4 8.04255 10579 550.00
538.63 7.000840 2.510371E-2 0.608170  1.122E-4 8.04342 10648 550.00
538.68 7.000840 2.511522E-2 0.608348  1.122E-4 8.04325 10717 550.00
538.71 7.000840 2.512986E-2 0.608563  1.121E-4 8.04311 10786 550.00
538.71 7.000840 2.514236E-2 0.608669  1.121E-4 8.04322 10855 550.00
