Nb
as received
Sample dimentions in mm: 0.7000 x 0.000 x 14.18
Photocell sensitivity 0.056 V/mm, Optic arm 328 mm
User: Iva
H 1 298 2.0 550 60 1.000  60 3.0E-1
27.11.2013, 11:16

T[K]   F[Hz]  Theta[rad]   Modulus  MaxStrain Center[mm] Time[s] TOven[K]
298.55 1.000576 4.074716E-3 0.697410  9.748E-5 8.11051 73 301.80
298.68 1.000576 4.091223E-3 0.697544  9.768E-5 8.11232 143 303.10
298.88 1.000576 3.851397E-3 0.697577  9.762E-5 8.11062 212 304.80
299.16 1.000576 4.006639E-3 0.697603  9.752E-5 8.10927 282 306.80
299.42 1.000576 3.831081E-3 0.697593  9.777E-5 8.10995 352 309.15
299.77 1.000576 3.846595E-3 0.697606  9.764E-5 8.10881 421 311.55
300.23 1.000576 3.798994E-3 0.697465  9.764E-5 8.11036 491 314.00
300.74 1.000576 3.643216E-3 0.697484  9.766E-5 8.11024 560 316.45
301.37 1.000576 3.839393E-3 0.697349  9.765E-5 8.11036 630 318.85
302.06 1.000576 3.749230E-3 0.697270  9.769E-5 8.11087 700 321.25
302.81 1.000576 3.720286E-3 0.697234  9.767E-5 8.11022 769 323.60
303.63 1.000576 3.822924E-3 0.696995  9.769E-5 8.11101 839 325.95
304.52 1.000576 3.687468E-3 0.696883  9.774E-5 8.11042 908 328.40
305.49 1.000576 3.724955E-3 0.696462  9.775E-5 8.11256 978 330.80
306.52 1.000576 3.721385E-3 0.696457  9.776E-5 8.11219 1048 333.15
307.61 1.000576 3.867650E-3 0.696134  9.776E-5 8.11306 1117 335.55
308.78 1.000576 3.717881E-3 0.695802  9.796E-5 8.11327 1187 337.90
309.98 1.000576 3.710909E-3 0.695460  9.785E-5 8.11249 1256 340.25
311.22 1.000576 3.932313E-3 0.695523  9.793E-5 8.11222 1326 342.55
312.49 1.000576 3.695239E-3 0.695135  9.780E-5 8.11086 1396 344.85
313.86 1.000576 3.631761E-3 0.694444  9.805E-5 8.11498 1465 347.15
315.28 1.000576 3.688563E-3 0.694295  9.809E-5 8.11303 1535 349.40
316.76 1.000576 3.822498E-3 0.694338  9.794E-5 8.10970 1604 351.65
318.28 1.000576 3.665993E-3 0.694078  9.815E-5 8.10945 1674 353.90
319.87 1.000576 3.782806E-3 0.693669  9.821E-5 8.10965 1744 356.15
321.50 1.000576 3.803142E-3 0.693431  9.802E-5 8.10678 1813 358.50
323.17 1.000576 3.774462E-3 0.692910  9.819E-5 8.10834 1883 360.85
324.85 1.000576 3.768812E-3 0.692565  9.823E-5 8.10739 1952 363.15
326.57 1.000576 3.894993E-3 0.692296  9.834E-5 8.10612 2022 365.50
328.35 1.000576 3.877718E-3 0.691886  9.836E-5 8.10488 2092 367.85
330.11 1.000576 3.958850E-3 0.691443  9.846E-5 8.10583 2161 370.20
331.98 1.000576 3.749933E-3 0.691077  9.847E-5 8.10463 2231 372.50
333.82 1.000576 3.885094E-3 0.690700  9.851E-5 8.10292 2300 374.85
335.67 1.000576 4.024439E-3 0.690320  9.852E-5 8.10169 2370 377.20
337.56 1.000576 3.882397E-3 0.689855  9.862E-5 8.10120 2440 379.45
339.46 1.000576 3.867430E-3 0.689417  9.868E-5 8.10007 2509 381.70
341.43 1.000576 3.845493E-3 0.688858  9.877E-5 8.10051 2579 384.05
343.39 1.000576 3.915755E-3 0.688268  9.893E-5 8.10007 2648 386.35
345.37 1.000576 3.992366E-3 0.688061  9.889E-5 8.09667 2718 388.75
347.48 1.000576 3.842319E-3 0.687110  9.897E-5 8.09559 2788 391.10
349.57 1.000576 3.925412E-3 0.686077  9.910E-5 8.09570 2857 393.40
351.68 1.000576 3.914493E-3 0.685144  9.929E-5 8.09523 2927 395.75
353.81 1.000576 3.740742E-3 0.684606  9.937E-5 8.09348 2996 398.00
356.00 1.000576 3.855468E-3 0.685185  9.923E-5 8.09047 3066 400.35
358.20 1.000576 3.785796E-3 0.685085  9.929E-5 8.08718 3136 402.70
360.41 1.000576 3.700257E-3 0.684018  9.943E-5 8.08754 3205 405.00
362.67 1.000576 3.771689E-3 0.683139  9.948E-5 8.08804 3275 407.30
364.93 1.000576 3.816950E-3 0.682942  9.954E-5 8.08698 3344 409.60
367.21 1.000576 3.858426E-3 0.683304  9.954E-5 8.08544 3414 411.85
369.48 1.000576 3.820464E-3 0.683234  9.949E-5 8.08573 3484 414.20
371.87 1.000576 3.844491E-3 0.683185  9.955E-5 8.08185 3553 416.50
374.20 1.000576 3.888308E-3 0.682678  9.993E-5 8.07588 3623 418.85
376.53 1.000576 3.920245E-3 0.682225  1.012E-4 8.06255 3692 421.15
378.90 1.000576 4.018479E-3 0.681611  1.012E-4 8.06283 3762 423.55
381.31 1.000576 4.163542E-3 0.681424  1.013E-4 8.06527 3832 425.95
383.74 1.000576 4.274856E-3 0.681284  1.013E-4 8.06279 3901 428.30
386.22 1.000576 4.292953E-3 0.680873  1.013E-4 8.06469 3971 430.65
388.74 1.000576 4.533246E-3 0.679414  1.016E-4 8.06981 4040 433.00
391.23 1.000576 4.764567E-3 0.679558  1.015E-4 8.06890 4110 435.30
393.75 1.000576 5.010054E-3 0.679042  1.015E-4 8.07048 4180 437.65
396.30 1.000576 5.245200E-3 0.678884  1.017E-4 8.06989 4249 440.00
398.85 1.000576 5.418766E-3 0.678143  1.018E-4 8.07217 4319 442.30
401.44 1.000576 5.833563E-3 0.677895  1.018E-4 8.07425 4388 444.60
404.05 1.000576 6.157739E-3 0.676449  1.020E-4 8.07794 4458 446.80
406.57 1.000576 6.731579E-3 0.675521  1.021E-4 8.07983 4528 448.90
409.15 1.000576 7.121260E-3 0.674784  1.023E-4 8.08249 4597 451.05
411.74 1.000576 7.779500E-3 0.674736  1.022E-4 8.08188 4667 453.30
414.33 1.000576 8.536377E-3 0.674258  1.023E-4 8.08359 4736 455.70
416.93 1.000576 9.358263E-3 0.673363  1.025E-4 8.08153 4806 458.05
419.53 1.000576 1.004572E-2 0.671772  1.027E-4 8.09294 4876 460.45
422.12 1.000576 1.101655E-2 0.670589  1.029E-4 8.09796 4945 462.85
424.74 1.000576 1.205783E-2 0.670073  1.030E-4 8.09741 5015 465.25
427.36 1.000576 1.302170E-2 0.668829  1.032E-4 8.10185 5084 467.55
429.96 1.000576 1.404918E-2 0.667153  1.034E-4 8.10799 5154 469.85
432.54 1.000576 1.493506E-2 0.666148  1.035E-4 8.10815 5224 472.10
435.17 1.000576 1.596653E-2 0.664441  1.038E-4 8.11022 5293 474.40
437.75 1.000576 1.678596E-2 0.662551  1.040E-4 8.11501 5363 476.70
440.32 1.000576 1.741817E-2 0.660844  1.043E-4 8.11569 5432 479.05
442.89 1.000576 1.800064E-2 0.659123  1.047E-4 8.11616 5502 481.45
445.49 1.000576 1.832471E-2 0.657322  1.049E-4 8.11822 5572 483.80
448.08 1.000576 1.865475E-2 0.655480  1.052E-4 8.11831 5641 486.10
450.68 1.000576 1.894642E-2 0.653475  1.055E-4 8.11986 5711 488.40
453.29 1.000576 1.909112E-2 0.651459  1.057E-4 8.12082 5780 490.80
455.89 1.000576 1.867363E-2 0.649436  1.062E-4 8.12452 5850 493.15
458.52 1.000576 1.828622E-2 0.647432  1.065E-4 8.12339 5920 495.50
461.14 1.000576 1.804760E-2 0.645462  1.067E-4 8.12361 5989 497.85
463.75 1.000576 1.737547E-2 0.643718  1.070E-4 8.12244 6059 500.20
466.37 1.000576 1.680983E-2 0.642134  1.072E-4 8.12315 6128 502.50
469.00 1.000576 1.606100E-2 0.640449  1.076E-4 8.12067 6198 504.80
471.60 1.000576 1.501240E-2 0.639041  1.080E-4 8.11786 6268 507.05
474.14 1.000576 1.439396E-2 0.637777  1.080E-4 8.11636 6337 509.30
476.66 1.000576 1.336727E-2 0.636402  1.082E-4 8.11654 6407 511.55
479.17 1.000576 1.261123E-2 0.635298  1.085E-4 8.11529 6476 513.85
481.67 1.000576 1.178910E-2 0.634347  1.085E-4 8.11674 6546 516.10
484.15 1.000576 1.104830E-2 0.633722  1.088E-4 8.10775 6616 518.45
486.60 1.000576 1.029403E-2 0.632800  1.089E-4 8.11142 6685 520.80
489.10 1.000576 9.736631E-3 0.632063  1.090E-4 8.10879 6755 523.15
491.61 1.000576 9.160349E-3 0.631480  1.091E-4 8.10994 6824 525.50
494.10 1.000576 8.847677E-3 0.630947  1.092E-4 8.10722 6894 527.85
496.62 1.000576 8.426620E-3 0.630406  1.093E-4 8.10673 6964 530.20
499.14 1.000576 7.806549E-3 0.629718  1.093E-4 8.10869 7033 532.55
501.66 1.000576 7.679302E-3 0.629230  1.096E-4 8.10732 7103 534.80
504.19 1.000576 7.199322E-3 0.628808  1.095E-4 8.10488 7172 537.15
506.76 1.000576 6.966211E-3 0.628226  1.096E-4 8.10290 7242 539.45
509.27 1.000576 6.880696E-3 0.627858  1.097E-4 8.10296 7312 541.80
511.82 1.000576 6.850944E-3 0.627300  1.099E-4 8.10646 7381 544.20
514.37 1.000576 6.529740E-3 0.626651  1.099E-4 8.10961 7451 546.50
516.89 1.000576 6.375445E-3 0.626392  1.100E-4 8.10800 7520 548.55
519.38 1.000576 6.229276E-3 0.625967  1.099E-4 8.10441 7590 549.70
521.73 1.000576 6.383290E-3 0.625531  1.101E-4 8.10238 7660 550.15
523.83 1.000576 6.242032E-3 0.625192  1.101E-4 8.10317 7729 550.30
525.69 1.000576 6.187718E-3 0.624757  1.103E-4 8.10511 7799 550.35
527.31 1.000576 6.121587E-3 0.624562  1.102E-4 8.10248 7868 550.30
528.69 1.000576 6.007958E-3 0.624326  1.102E-4 8.10159 7938 550.30
529.84 1.000576 6.028731E-3 0.624038  1.103E-4 8.10050 8008 550.25
530.82 1.000576 5.994969E-3 0.623876  1.103E-4 8.09771 8077 550.20
531.62 1.000576 6.106684E-3 0.623744  1.104E-4 8.09774 8147 550.20
532.33 1.000576 5.900258E-3 0.623751  1.103E-4 8.09586 8216 550.10
533.00 1.000576 5.958223E-3 0.623561  1.104E-4 8.09308 8286 550.10
533.51 1.000576 5.960275E-3 0.623415  1.104E-4 8.09492 8356 550.10
533.98 1.000576 5.679682E-3 0.623311  1.105E-4 8.09332 8425 550.10
534.38 1.000576 5.968141E-3 0.623193  1.105E-4 8.09292 8495 550.10
534.73 1.000576 5.884422E-3 0.623116  1.104E-4 8.09140 8564 550.05
535.04 1.000576 5.902055E-3 0.623091  1.104E-4 8.09264 8634 550.10
535.30 1.000576 5.944029E-3 0.622924  1.105E-4 8.09159 8704 550.10
535.49 1.000576 5.850394E-3 0.622852  1.104E-4 8.08882 8773 550.00
535.69 1.000576 5.926195E-3 0.622751  1.105E-4 8.08699 8843 550.00
535.85 1.000576 5.964321E-3 0.622842  1.105E-4 8.08573 8912 550.00
535.97 1.000576 6.011282E-3 0.622735  1.105E-4 8.08382 8982 550.00
536.11 1.000576 5.932629E-3 0.622698  1.105E-4 8.08195 9052 550.00
536.25 1.000576 5.892649E-3 0.622714  1.105E-4 8.08076 9121 550.00
536.37 1.000576 5.837905E-3 0.622708  1.105E-4 8.07991 9191 550.00
536.48 1.000576 5.842098E-3 0.622610  1.105E-4 8.07901 9260 550.00
536.59 1.000576 5.780730E-3 0.622536  1.105E-4 8.07757 9330 550.00
536.69 1.000576 5.833908E-3 0.622732  1.104E-4 8.07621 9400 550.00
536.76 1.000576 5.851735E-3 0.622663  1.104E-4 8.07531 9469 550.00
536.82 1.000576 5.897340E-3 0.622662  1.104E-4 8.07459 9539 550.00
536.89 1.000576 5.935821E-3 0.622577  1.104E-4 8.07308 9608 550.05
536.93 1.000576 5.912836E-3 0.622706  1.104E-4 8.07260 9678 550.05
536.98 1.000576 5.752362E-3 0.622532  1.105E-4 8.07233 9748 550.05
536.97 1.000576 5.820074E-3 0.622655  1.104E-4 8.07245 9817 550.00
536.99 1.000576 5.917526E-3 0.622671  1.104E-4 8.07143 9887 550.00
536.96 1.000576 5.850159E-3 0.622694  1.104E-4 8.07089 9956 550.00
536.98 1.000576 5.706618E-3 0.622686  1.104E-4 8.07249 10026 550.00
536.98 1.000576 5.553482E-3 0.622746  1.104E-4 8.07274 10096 550.00
536.99 1.000576 5.786016E-3 0.622701  1.103E-4 8.07261 10165 550.00
537.02 1.000576 5.743790E-3 0.622793  1.103E-4 8.07228 10235 550.00
537.04 1.000576 5.683002E-3 0.622718  1.104E-4 8.07278 10304 550.00
537.12 1.000576 5.754351E-3 0.622806  1.103E-4 8.07419 10374 550.00
537.10 1.000576 5.573870E-3 0.622782  1.103E-4 8.07422 10444 550.00
537.12 1.000576 5.684580E-3 0.622834  1.104E-4 8.07531 10513 550.00
537.15 1.000576 5.616325E-3 0.622682  1.103E-4 8.07735 10583 550.00
537.18 1.000576 5.759817E-3 0.622751  1.103E-4 8.07791 10652 550.00
537.20 1.000576 5.640121E-3 0.622793  1.103E-4 8.08037 10722 550.00
537.24 1.000576 5.748506E-3 0.622706  1.104E-4 8.08148 10792 550.00
537.28 1.000576 5.675537E-3 0.622779  1.104E-4 8.08279 10861 550.00
537.29 1.000576 5.819062E-3 0.622676  1.104E-4 8.08466 10931 550.00
537.31 1.000576 5.786716E-3 0.622670  1.104E-4 8.08597 11000 550.00
537.34 1.000576 5.745067E-3 0.622709  1.103E-4 8.08755 11070 550.00
