Nb
as received
Sample dimentions in mm: 0.7000 x 0.000 x 14.18
Photocell sensitivity 0.056 V/mm, Optic arm 328 mm
User: Iva
H 7 290 2.0 550 60 4.000  60 3.0E-1
28.11.2013, 06:52

T[K]   F[Hz]  Theta[rad]   Modulus  MaxStrain Center[mm] Time[s] TOven[K]
312.55 4.000000 1.193070E-2 0.688626  9.956E-5 7.71363 65 308.75
312.33 4.000000 1.197586E-2 0.688663  9.954E-5 7.71203 134 308.70
312.13 4.000000 1.192768E-2 0.688719  9.954E-5 7.71191 203 309.15
311.95 4.000000 1.196708E-2 0.688791  9.953E-5 7.71084 271 310.75
311.84 4.000000 1.195174E-2 0.688818  9.954E-5 7.71023 340 313.25
311.78 4.000000 1.189952E-2 0.688839  9.959E-5 7.71038 408 316.10
311.80 4.000000 1.188830E-2 0.688797  9.958E-5 7.70982 477 319.00
311.92 4.000000 1.190825E-2 0.688837  9.953E-5 7.70946 546 321.95
312.14 4.000000 1.187609E-2 0.688844  9.958E-5 7.70909 614 324.85
312.44 4.000000 1.185954E-2 0.688821  9.955E-5 7.70886 683 327.60
312.83 4.000000 1.185695E-2 0.688755  9.958E-5 7.70906 751 330.25
313.31 4.000000 1.183641E-2 0.688676  9.950E-5 7.70994 820 332.80
313.85 4.000000 1.183191E-2 0.688607  9.957E-5 7.70973 889 335.25
314.47 4.000000 1.179535E-2 0.688495  9.960E-5 7.71022 957 337.65
315.17 4.000000 1.180799E-2 0.688363  9.960E-5 7.71006 1026 340.05
315.94 4.000000 1.180756E-2 0.688227  9.963E-5 7.70912 1094 342.45
316.77 4.000000 1.181141E-2 0.688029  9.963E-5 7.70972 1163 344.80
317.65 4.000000 1.183841E-2 0.687866  9.968E-5 7.70977 1232 347.10
318.59 4.000000 1.186818E-2 0.687672  9.971E-5 7.70975 1300 349.40
319.57 4.000000 1.188766E-2 0.687454  9.973E-5 7.71047 1369 351.70
320.61 4.000000 1.187305E-2 0.687157  9.980E-5 7.71054 1437 354.00
321.74 4.000000 1.185603E-2 0.686854  9.983E-5 7.71093 1506 356.30
322.91 4.000000 1.189000E-2 0.686548  9.990E-5 7.71203 1575 358.45
324.13 4.000000 1.187983E-2 0.686211  1.000E-4 7.71219 1643 360.70
325.42 4.000000 1.190150E-2 0.685878  1.000E-4 7.71325 1712 362.90
326.78 4.000000 1.188049E-2 0.685542  1.000E-4 7.71314 1780 365.10
328.14 4.000000 1.185241E-2 0.685169  1.001E-4 7.71324 1849 367.40
329.55 4.000000 1.184941E-2 0.684797  1.002E-4 7.71360 1918 369.70
331.01 4.000000 1.186068E-2 0.684428  1.003E-4 7.71342 1986 372.05
332.51 4.000000 1.186661E-2 0.684034  1.003E-4 7.71307 2055 374.35
334.07 4.000000 1.182023E-2 0.683631  1.003E-4 7.71417 2123 376.65
335.67 4.000000 1.181847E-2 0.683219  1.004E-4 7.71431 2192 379.00
337.31 4.000000 1.181947E-2 0.682812  1.005E-4 7.71466 2261 381.20
338.99 4.000000 1.181278E-2 0.682378  1.005E-4 7.71480 2329 383.50
340.71 4.000000 1.182553E-2 0.681951  1.007E-4 7.71512 2398 385.80
342.49 4.000000 1.177984E-2 0.681519  1.006E-4 7.71660 2466 388.10
344.30 4.000000 1.172791E-2 0.681155  1.007E-4 7.71640 2535 390.40
346.15 4.000000 1.174753E-2 0.680777  1.008E-4 7.71673 2604 392.75
348.03 4.000000 1.173937E-2 0.680440  1.009E-4 7.71611 2672 395.05
349.96 4.000000 1.172890E-2 0.680053  1.009E-4 7.71665 2741 397.35
351.93 4.000000 1.171508E-2 0.679693  1.009E-4 7.71668 2809 399.60
353.93 4.000000 1.170113E-2 0.679334  1.010E-4 7.71746 2878 401.90
355.97 4.000000 1.168724E-2 0.678909  1.011E-4 7.71811 2947 404.10
358.05 4.000000 1.169861E-2 0.678577  1.011E-4 7.71774 3015 406.40
360.18 4.000000 1.167380E-2 0.678181  1.012E-4 7.71843 3084 408.70
362.34 4.000000 1.165271E-2 0.677753  1.013E-4 7.71950 3152 410.95
364.53 4.000000 1.163685E-2 0.677356  1.013E-4 7.72032 3221 413.20
366.75 4.000000 1.163338E-2 0.676977  1.013E-4 7.72083 3290 415.45
368.96 4.000000 1.164711E-2 0.676538  1.014E-4 7.72217 3358 417.75
371.30 4.000000 1.164109E-2 0.676120  1.015E-4 7.72297 3427 420.05
373.63 4.000000 1.160807E-2 0.675711  1.015E-4 7.72409 3495 422.40
375.96 4.000000 1.158788E-2 0.675316  1.017E-4 7.72586 3564 424.75
378.34 4.000000 1.156205E-2 0.674997  1.016E-4 7.72714 3633 427.15
380.85 4.000000 1.162256E-2 0.674616  1.016E-4 7.72941 3701 429.40
383.31 4.000000 1.167168E-2 0.674221  1.017E-4 7.73218 3770 431.75
385.76 4.000000 1.171977E-2 0.673825  1.018E-4 7.73470 3838 434.00
388.30 4.000000 1.178394E-2 0.673379  1.019E-4 7.73620 3907 436.35
390.84 4.000000 1.186792E-2 0.672937  1.020E-4 7.73913 3976 438.60
393.41 4.000000 1.193068E-2 0.672452  1.021E-4 7.74174 4044 440.90
396.01 4.000000 1.203855E-2 0.672010  1.021E-4 7.74425 4113 443.15
398.56 4.000000 1.212160E-2 0.671563  1.021E-4 7.74790 4181 445.40
401.18 4.000000 1.227600E-2 0.671212  1.022E-4 7.75023 4250 447.55
403.80 4.000000 1.246033E-2 0.670868  1.023E-4 7.75302 4319 449.70
406.41 4.000000 1.266395E-2 0.670413  1.023E-4 7.75654 4387 452.00
409.05 4.000000 1.290170E-2 0.669928  1.024E-4 7.76061 4456 454.30
411.70 4.000000 1.314562E-2 0.669391  1.025E-4 7.76537 4524 456.50
414.29 4.000000 1.343268E-2 0.668936  1.025E-4 7.76899 4593 458.80
416.91 4.000000 1.376472E-2 0.668426  1.026E-4 7.77316 4662 461.10
419.54 4.000000 1.417501E-2 0.667949  1.027E-4 7.77785 4730 463.40
422.16 4.000000 1.466724E-2 0.667470  1.028E-4 7.78141 4799 465.70
481.08 4.000000 1.548842E-2 0.617915  1.017E-4 7.78762 31979 508.50
