Nb
as received
Sample dimentions in mm: 0.7000 x 0.000 x 14.18
Photocell sensitivity 0.056 V/mm, Optic arm 328 mm
User: Iva
C 20 550 2.0 290 999 10.000  60 3.0E-1
30.11.2013, 07:56

T[K]   F[Hz]  Theta[rad]   Modulus  MaxStrain Center[mm] Time[s] TOven[K]
538.84 10.000000 3.477245E-2 0.591880  1.143E-4 8.05453 65 549.65
538.79 10.000000 3.474351E-2 0.591884  1.142E-4 8.05533 134 548.45
538.60 10.000000 3.477688E-2 0.591943  1.143E-4 8.05581 203 546.50
538.25 10.000000 3.478762E-2 0.591993  1.142E-4 8.05491 271 544.30
537.70 10.000000 3.485013E-2 0.592050  1.142E-4 8.05508 340 542.00
536.95 10.000000 3.485480E-2 0.592132  1.143E-4 8.05402 409 539.70
536.00 10.000000 3.497990E-2 0.592306  1.143E-4 8.05305 478 537.45
534.88 10.000000 3.506384E-2 0.592462  1.141E-4 8.05226 546 535.20
533.59 10.000000 3.514610E-2 0.592616  1.141E-4 8.05117 615 532.90
532.18 10.000000 3.525634E-2 0.592811  1.140E-4 8.04893 684 530.65
530.65 10.000000 3.541919E-2 0.593054  1.139E-4 8.04698 752 528.35
529.03 10.000000 3.562627E-2 0.593341  1.139E-4 8.04593 821 526.00
527.30 10.000000 3.578441E-2 0.593622  1.139E-4 8.04368 890 523.70
525.53 10.000000 3.602023E-2 0.593984  1.138E-4 8.04122 958 521.40
523.66 10.000000 3.629028E-2 0.594372  1.138E-4 8.03925 1027 519.10
521.78 10.000000 3.655587E-2 0.594762  1.137E-4 8.03586 1096 516.90
519.88 10.000000 3.690356E-2 0.595254  1.135E-4 8.03414 1165 514.70
517.97 10.000000 3.720348E-2 0.595723  1.135E-4 8.03025 1233 512.35
516.00 10.000000 3.752667E-2 0.596197  1.134E-4 8.02730 1302 510.00
514.00 10.000000 3.786674E-2 0.596711  1.133E-4 8.02312 1371 507.55
511.93 10.000000 3.830007E-2 0.597296  1.131E-4 8.01928 1439 505.15
509.83 10.000000 3.872155E-2 0.597818  1.131E-4 8.01583 1508 502.75
507.67 10.000000 3.925880E-2 0.598506  1.129E-4 8.01242 1577 500.50
505.54 10.000000 3.976106E-2 0.599146  1.128E-4 8.00832 1645 498.20
503.35 10.000000 4.032956E-2 0.599821  1.127E-4 8.00397 1714 495.95
501.14 10.000000 4.092711E-2 0.600574  1.126E-4 7.99961 1783 493.70
498.99 10.000000 4.154690E-2 0.601368  1.124E-4 7.99610 1852 491.45
496.79 10.000000 4.220977E-2 0.602153  1.123E-4 7.99166 1920 489.20
494.63 10.000000 4.290894E-2 0.602996  1.121E-4 7.98786 1989 486.90
492.46 10.000000 4.365173E-2 0.603903  1.120E-4 7.98367 2058 484.60
490.27 10.000000 4.439024E-2 0.604836  1.117E-4 7.97938 2126 482.25
488.11 10.000000 4.515684E-2 0.605831  1.116E-4 7.97474 2195 479.90
485.96 10.000000 4.594344E-2 0.606893  1.114E-4 7.97133 2264 477.60
483.83 10.000000 4.670672E-2 0.607978  1.112E-4 7.96628 2332 475.40
481.63 10.000000 4.749431E-2 0.609203  1.110E-4 7.96229 2401 473.10
479.47 10.000000 4.821773E-2 0.610455  1.107E-4 7.95768 2470 470.80
477.33 10.000000 4.892381E-2 0.611795  1.105E-4 7.95377 2539 468.50
475.19 10.000000 4.957411E-2 0.613188  1.102E-4 7.94949 2607 466.20
473.03 10.000000 5.011544E-2 0.614635  1.099E-4 7.94656 2676 463.95
470.91 10.000000 5.058229E-2 0.616155  1.098E-4 7.94134 2745 461.70
468.78 10.000000 5.088335E-2 0.617693  1.094E-4 7.93711 2813 459.40
466.68 10.000000 5.104687E-2 0.619270  1.090E-4 7.93359 2882 457.20
464.58 10.000000 5.107915E-2 0.620934  1.089E-4 7.92991 2950 455.00
462.50 10.000000 5.088305E-2 0.622539  1.086E-4 7.92642 3019 452.65
460.42 10.000000 5.049274E-2 0.624116  1.083E-4 7.92166 3088 450.30
458.27 10.000000 4.994759E-2 0.625724  1.080E-4 7.91820 3156 448.00
456.17 10.000000 4.921977E-2 0.627238  1.077E-4 7.91431 3225 445.65
454.08 10.000000 4.845513E-2 0.628770  1.074E-4 7.91028 3293 443.30
451.99 10.000000 4.751761E-2 0.630205  1.072E-4 7.90744 3362 441.00
449.90 10.000000 4.646948E-2 0.631508  1.070E-4 7.90396 3431 438.75
447.82 10.000000 4.537364E-2 0.632718  1.068E-4 7.90025 3499 436.50
445.75 10.000000 4.427935E-2 0.633827  1.066E-4 7.89647 3568 434.30
443.70 10.000000 4.318394E-2 0.634868  1.065E-4 7.89240 3636 432.00
441.65 10.000000 4.213705E-2 0.635826  1.062E-4 7.88977 3705 429.65
439.64 10.000000 4.106130E-2 0.636666  1.061E-4 7.88697 3774 427.40
437.67 10.000000 4.007825E-2 0.637461  1.059E-4 7.88313 3842 425.10
435.62 10.000000 3.916536E-2 0.638211  1.060E-4 7.87906 3911 422.90
433.66 10.000000 3.826915E-2 0.638840  1.058E-4 7.87557 3979 420.60
431.67 10.000000 3.747524E-2 0.639493  1.057E-4 7.87341 4048 418.25
429.70 10.000000 3.667150E-2 0.640044  1.055E-4 7.86996 4117 415.95
427.73 10.000000 3.608344E-2 0.640628  1.055E-4 7.86653 4185 413.70
425.75 10.000000 3.549040E-2 0.641184  1.054E-4 7.86452 4254 411.40
423.78 10.000000 3.492826E-2 0.641725  1.053E-4 7.86100 4322 409.15
421.82 10.000000 3.439052E-2 0.642137  1.053E-4 7.85726 4391 406.95
419.83 10.000000 3.376192E-2 0.642570  1.052E-4 7.85408 4460 404.80
417.88 10.000000 3.324644E-2 0.642933  1.051E-4 7.85142 4528 402.50
415.93 10.000000 3.289113E-2 0.643383  1.050E-4 7.84918 4597 400.20
413.99 10.000000 3.240305E-2 0.643724  1.049E-4 7.84597 4665 398.05
412.03 10.000000 3.225224E-2 0.644229  1.049E-4 7.84209 4734 395.80
410.08 10.000000 3.195319E-2 0.644608  1.048E-4 7.83952 4803 393.45
408.15 10.000000 3.171775E-2 0.644993  1.047E-4 7.83713 4871 391.20
406.23 10.000000 3.139598E-2 0.645346  1.047E-4 7.83509 4940 388.90
404.26 10.000000 3.105895E-2 0.645634  1.046E-4 7.83151 5008 386.75
402.40 10.000000 3.088801E-2 0.646005  1.046E-4 7.82861 5077 384.55
400.48 10.000000 3.078371E-2 0.646406  1.045E-4 7.82514 5146 382.50
398.60 10.000000 3.069038E-2 0.646831  1.045E-4 7.82322 5214 380.45
396.75 10.000000 3.052806E-2 0.647177  1.044E-4 7.82085 5283 378.50
394.94 10.000000 3.033839E-2 0.647492  1.044E-4 7.81703 5351 376.60
393.12 10.000000 3.015982E-2 0.647802  1.044E-4 7.81481 5420 374.75
391.34 10.000000 2.997184E-2 0.648111  1.042E-4 7.81153 5489 372.95
389.59 10.000000 2.984164E-2 0.648414  1.042E-4 7.80984 5557 371.25
387.89 10.000000 2.978160E-2 0.648745  1.042E-4 7.80722 5626 369.60
386.17 10.000000 2.974240E-2 0.649105  1.041E-4 7.80448 5694 368.05
384.54 10.000000 2.971048E-2 0.649443  1.042E-4 7.80143 5763 366.60
382.91 10.000000 2.963229E-2 0.649754  1.040E-4 7.79953 5832 365.20
381.33 10.000000 2.959095E-2 0.650085  1.040E-4 7.79722 5900 363.85
379.80 10.000000 2.948530E-2 0.650390  1.039E-4 7.79439 5969 362.55
378.25 10.000000 2.945999E-2 0.650719  1.038E-4 7.79304 6037 361.30
376.77 10.000000 2.943936E-2 0.651043  1.038E-4 7.79046 6106 360.05
375.31 10.000000 2.930607E-2 0.651286  1.038E-4 7.78822 6175 358.80
373.89 10.000000 2.934601E-2 0.651621  1.037E-4 7.78647 6243 357.50
372.50 10.000000 2.935074E-2 0.651914  1.036E-4 7.78488 6312 356.25
371.15 10.000000 2.926412E-2 0.652172  1.037E-4 7.78270 6380 355.00
369.82 10.000000 2.922007E-2 0.652440  1.035E-4 7.77937 6449 353.90
368.55 10.000000 2.929669E-2 0.652737  1.035E-4 7.77842 6518 352.75
367.28 10.000000 2.925540E-2 0.653001  1.034E-4 7.77727 6586 351.75
366.02 10.000000 2.930591E-2 0.653305  1.035E-4 7.77420 6655 350.75
364.81 10.000000 2.903314E-2 0.653451  1.034E-4 7.77221 6723 349.80
363.62 10.000000 2.911647E-2 0.653765  1.034E-4 7.77054 6792 348.85
362.46 10.000000 2.924589E-2 0.654068  1.033E-4 7.76816 6861 347.95
361.33 10.000000 2.921690E-2 0.654322  1.033E-4 7.76657 6929 347.05
360.22 10.000000 2.916817E-2 0.654536  1.033E-4 7.76518 6998 346.20
359.14 10.000000 2.919769E-2 0.654785  1.032E-4 7.76357 7066 345.35
358.09 10.000000 2.912451E-2 0.655006  1.031E-4 7.76176 7135 344.55
357.04 10.000000 2.910896E-2 0.655234  1.032E-4 7.75977 7204 343.65
356.02 10.000000 2.910285E-2 0.655441  1.031E-4 7.75821 7272 342.85
355.02 10.000000 2.918179E-2 0.655677  1.030E-4 7.75714 7341 342.15
354.02 10.000000 2.918291E-2 0.655888  1.030E-4 7.75472 7409 341.35
353.09 10.000000 2.913109E-2 0.656115  1.029E-4 7.75347 7478 340.60
352.16 10.000000 2.917358E-2 0.656356  1.030E-4 7.75157 7547 339.90
351.24 10.000000 2.915405E-2 0.656579  1.030E-4 7.74919 7615 339.20
350.33 10.000000 2.912699E-2 0.656873  1.029E-4 7.74835 7684 338.50
349.45 10.000000 2.919245E-2 0.657144  1.029E-4 7.74689 7752 337.85
348.59 10.000000 2.913744E-2 0.657356  1.028E-4 7.74543 7821 337.20
347.75 10.000000 2.917277E-2 0.657570  1.027E-4 7.74339 7890 336.50
346.92 10.000000 2.926482E-2 0.657832  1.027E-4 7.74220 7958 335.85
346.09 10.000000 2.916953E-2 0.658016  1.028E-4 7.74180 8027 335.20
345.28 10.000000 2.919299E-2 0.658236  1.027E-4 7.73979 8095 334.55
344.49 10.000000 2.918892E-2 0.658163  1.026E-4 7.73936 8164 333.95
343.73 10.000000 2.909151E-2 0.658324  1.027E-4 7.73750 8233 333.30
342.97 10.000000 2.908118E-2 0.658320  1.026E-4 7.73708 8301 332.70
342.24 10.000000 2.916043E-2 0.658484  1.026E-4 7.73618 8370 332.15
341.54 10.000000 2.927246E-2 0.658659  1.027E-4 7.73522 8438 331.50
340.80 10.000000 2.909836E-2 0.658773  1.025E-4 7.73323 8507 330.95
340.13 10.000000 2.919769E-2 0.658991  1.025E-4 7.73231 8576 330.35
339.48 10.000000 2.914555E-2 0.659083  1.025E-4 7.73054 8644 329.75
338.81 10.000000 2.915360E-2 0.659259  1.025E-4 7.73036 8713 329.15
338.16 10.000000 2.914419E-2 0.659416  1.025E-4 7.72956 8781 328.60
337.51 10.000000 2.917987E-2 0.659595  1.024E-4 7.72722 8850 328.05
336.87 10.000000 2.917650E-2 0.659721  1.025E-4 7.72724 8919 327.60
336.25 10.000000 2.923511E-2 0.659919  1.023E-4 7.72578 8987 327.05
335.63 10.000000 2.922336E-2 0.660063  1.024E-4 7.72502 9056 326.60
335.03 10.000000 2.934415E-2 0.660281  1.023E-4 7.72401 9124 326.10
334.44 10.000000 2.927124E-2 0.660347  1.024E-4 7.72260 9193 325.60
333.86 10.000000 2.922691E-2 0.660439  1.023E-4 7.72314 9262 325.15
333.29 10.000000 2.918109E-2 0.660551  1.023E-4 7.72193 9330 324.70
332.75 10.000000 2.922346E-2 0.660764  1.023E-4 7.72014 9399 324.30
332.20 10.000000 2.917892E-2 0.661022  1.023E-4 7.71892 9467 323.90
331.66 10.000000 2.919396E-2 0.661246  1.022E-4 7.71747 9536 323.45
331.14 10.000000 2.917963E-2 0.661822  1.021E-4 7.71565 9605 323.05
330.61 10.000000 2.911290E-2 0.661464  1.022E-4 7.71602 9673 322.65
330.10 10.000000 2.904348E-2 0.661355  1.022E-4 7.71604 9742 322.25
329.60 10.000000 2.911512E-2 0.661390  1.022E-4 7.71571 9810 321.85
329.12 10.000000 2.902899E-2 0.661700  1.022E-4 7.71406 9879 321.45
328.64 10.000000 2.899468E-2 0.662619  1.020E-4 7.70944 9948 321.10
328.19 10.000000 2.897970E-2 0.662761  1.020E-4 7.70909 10016 320.75
327.70 10.000000 2.896118E-2 0.663066  1.020E-4 7.70866 10085 320.40
327.24 10.000000 2.892324E-2 0.662563  1.020E-4 7.70933 10153 320.00
326.82 10.000000 2.894067E-2 0.663397  1.020E-4 7.70730 10222 319.65
326.35 10.000000 2.892683E-2 0.663599  1.019E-4 7.70530 10291 319.30
325.89 10.000000 2.885727E-2 0.662927  1.020E-4 7.70778 10359 318.95
325.47 10.000000 2.876496E-2 0.663750  1.018E-4 7.70497 10428 318.65
325.05 10.000000 2.882976E-2 0.663507  1.019E-4 7.70504 10496 318.35
324.64 10.000000 2.875959E-2 0.663153  1.020E-4 7.70531 10565 318.00
324.24 10.000000 2.863478E-2 0.663953  1.018E-4 7.70207 10634 317.70
323.84 10.000000 2.862219E-2 0.663078  1.020E-4 7.70476 10702 317.40
323.48 10.000000 2.860804E-2 0.663741  1.018E-4 7.70351 10771 317.10
323.09 10.000000 2.858443E-2 0.663379  1.019E-4 7.70384 10839 316.80
322.73 10.000000 2.854730E-2 0.664363  1.017E-4 7.70030 10908 316.55
322.35 10.000000 2.847680E-2 0.664112  1.019E-4 7.70032 10976 316.25
321.99 10.000000 2.849902E-2 0.664437  1.018E-4 7.69943 11045 316.00
321.62 10.000000 2.847244E-2 0.664483  1.018E-4 7.69890 11114 315.70
321.27 10.000000 2.838622E-2 0.664522  1.018E-4 7.69813 11182 315.50
320.91 10.000000 2.836443E-2 0.664479  1.017E-4 7.69828 11251 315.20
320.56 10.000000 2.824286E-2 0.664583  1.018E-4 7.69727 11319 315.00
320.23 10.000000 2.827072E-2 0.664734  1.017E-4 7.69606 11388 314.70
319.89 10.000000 2.813988E-2 0.664762  1.017E-4 7.69532 11456 314.40
319.56 10.000000 2.819963E-2 0.663631  1.018E-4 7.69900 11525 314.20
319.23 10.000000 2.812862E-2 0.663919  1.018E-4 7.69736 11593 313.90
318.91 10.000000 2.811544E-2 0.663255  1.019E-4 7.69990 11662 313.70
318.61 10.000000 2.813812E-2 0.663697  1.020E-4 7.69816 11730 313.50
318.31 10.000000 2.807254E-2 0.663860  1.018E-4 7.69764 11799 313.20
318.01 10.000000 2.812418E-2 0.663261  1.019E-4 7.69938 11868 313.00
317.71 10.000000 2.807604E-2 0.663299  1.020E-4 7.69925 11936 312.80
317.42 10.000000 2.807364E-2 0.663366  1.019E-4 7.69910 12005 312.55
317.14 10.000000 2.809271E-2 0.663388  1.020E-4 7.69900 12073 312.30
316.86 10.000000 2.802414E-2 0.663416  1.019E-4 7.69852 12142 312.10
316.58 10.000000 2.805503E-2 0.663462  1.018E-4 7.69823 12210 311.90
316.32 10.000000 2.800070E-2 0.663453  1.019E-4 7.69813 12279 311.75
316.06 10.000000 2.800902E-2 0.663532  1.019E-4 7.69774 12347 311.50
315.80 10.000000 2.800344E-2 0.663580  1.019E-4 7.69769 12416 311.30
315.55 10.000000 2.791405E-2 0.663561  1.020E-4 7.69682 12484 311.10
315.29 10.000000 2.786045E-2 0.663615  1.020E-4 7.69641 12553 310.90
315.05 10.000000 2.792124E-2 0.663672  1.019E-4 7.69644 12621 310.70
314.81 10.000000 2.792176E-2 0.663712  1.019E-4 7.69631 12690 310.50
314.56 10.000000 2.787553E-2 0.663761  1.019E-4 7.69594 12758 310.35
314.32 10.000000 2.786839E-2 0.663782  1.018E-4 7.69558 12827 310.20
314.08 10.000000 2.790069E-2 0.663846  1.019E-4 7.69554 12895 310.00
313.85 10.000000 2.782118E-2 0.663914  1.019E-4 7.69506 12964 309.90
313.62 10.000000 2.786963E-2 0.663985  1.019E-4 7.69553 13032 309.70
313.41 10.000000 2.786775E-2 0.664071  1.019E-4 7.69477 13101 309.55
313.18 10.000000 2.786427E-2 0.664272  1.018E-4 7.69471 13169 309.35
312.96 10.000000 2.785536E-2 0.664924  1.017E-4 7.69173 13238 309.20
312.76 10.000000 2.785527E-2 0.666057  1.016E-4 7.68960 13306 309.05
312.55 10.000000 2.787192E-2 0.666117  1.016E-4 7.68958 13375 308.90
312.37 10.000000 2.781182E-2 0.665912  1.015E-4 7.68965 13443 308.75
312.16 10.000000 2.779797E-2 0.665977  1.016E-4 7.68840 13512 308.60
312.00 10.000000 2.783345E-2 0.665458  1.016E-4 7.69046 13580 308.45
311.75 10.000000 2.781146E-2 0.664614  1.017E-4 7.69274 13649 308.30
311.59 10.000000 2.779559E-2 0.664866  1.017E-4 7.69210 13717 308.15
311.37 10.000000 2.784657E-2 0.664607  1.018E-4 7.69215 13786 308.05
311.18 10.000000 2.779527E-2 0.664614  1.018E-4 7.69263 13854 307.90
311.01 10.000000 2.784101E-2 0.664694  1.018E-4 7.69251 13923 307.75
310.83 10.000000 2.787676E-2 0.664800  1.018E-4 7.69222 13991 307.65
310.66 10.000000 2.781910E-2 0.666209  1.015E-4 7.68896 14060 307.45
310.49 10.000000 2.783989E-2 0.666545  1.015E-4 7.68737 14128 307.35
310.30 10.000000 2.780646E-2 0.665223  1.017E-4 7.69066 14197 307.25
310.12 10.000000 2.775972E-2 0.665339  1.018E-4 7.68947 14265 307.10
309.97 10.000000 2.774030E-2 0.666417  1.014E-4 7.68647 14334 307.00
309.80 10.000000 2.767642E-2 0.666612  1.014E-4 7.68635 14402 306.85
309.65 10.000000 2.770788E-2 0.666681  1.014E-4 7.68613 14471 306.75
309.49 10.000000 2.771915E-2 0.666717  1.015E-4 7.68656 14539 306.65
309.35 10.000000 2.769090E-2 0.666713  1.015E-4 7.68545 14608 306.55
309.19 10.000000 2.771362E-2 0.666730  1.015E-4 7.68542 14676 306.40
309.03 10.000000 2.771057E-2 0.666761  1.014E-4 7.68562 14745 306.35
308.89 10.000000 2.770603E-2 0.666748  1.015E-4 7.68541 14813 306.20
308.75 10.000000 2.765603E-2 0.666730  1.015E-4 7.68529 14882 306.10
308.61 10.000000 2.765193E-2 0.666768  1.015E-4 7.68528 14950 306.05
308.46 10.000000 2.765718E-2 0.666673  1.015E-4 7.68463 15019 305.90
308.33 10.000000 2.767446E-2 0.666837  1.015E-4 7.68517 15087 305.80
308.20 10.000000 2.767059E-2 0.666823  1.015E-4 7.68467 15156 305.75
308.06 10.000000 2.760990E-2 0.666733  1.015E-4 7.68517 15224 305.55
307.93 10.000000 2.763942E-2 0.666782  1.014E-4 7.68506 15293 305.45
307.79 10.000000 2.761219E-2 0.666406  1.015E-4 7.68561 15361 305.40
307.65 10.000000 2.763236E-2 0.666427  1.015E-4 7.68469 15430 305.30
307.52 10.000000 2.767085E-2 0.666673  1.015E-4 7.68444 15498 305.15
307.41 10.000000 2.766040E-2 0.666963  1.014E-4 7.68398 15567 305.10
307.30 10.000000 2.768638E-2 0.667026  1.015E-4 7.68435 15635 305.05
307.17 10.000000 2.768684E-2 0.666835  1.015E-4 7.68411 15704 304.95
307.06 10.000000 2.763775E-2 0.666206  1.016E-4 7.68546 15772 304.85
306.94 10.000000 2.765500E-2 0.666816  1.015E-4 7.68412 15841 304.75
306.82 10.000000 2.764059E-2 0.667049  1.015E-4 7.68303 15909 304.70
306.69 10.000000 2.764881E-2 0.667031  1.014E-4 7.68349 15978 304.60
306.57 10.000000 2.763526E-2 0.666996  1.015E-4 7.68301 16046 304.50
306.47 10.000000 2.761968E-2 0.666967  1.014E-4 7.68218 16115 304.45
306.36 10.000000 2.761928E-2 0.667023  1.015E-4 7.68228 16183 304.35
306.27 10.000000 2.763407E-2 0.667045  1.015E-4 7.68198 16252 304.30
306.16 10.000000 2.764001E-2 0.666960  1.015E-4 7.68178 16320 304.25
306.08 10.000000 2.758346E-2 0.666922  1.015E-4 7.68102 16389 304.10
305.94 10.000000 2.758956E-2 0.666928  1.015E-4 7.68137 16457 304.05
305.87 10.000000 2.761032E-2 0.666916  1.015E-4 7.68080 16526 303.95
305.78 10.000000 2.759769E-2 0.666898  1.015E-4 7.67984 16594 303.95
305.64 10.000000 2.757629E-2 0.666819  1.014E-4 7.67963 16663 303.85
305.58 10.000000 2.754819E-2 0.666709  1.015E-4 7.67808 16731 303.75
305.47 10.000000 2.756618E-2 0.666642  1.016E-4 7.67888 16800 303.65
305.37 10.000000 2.749029E-2 0.666681  1.016E-4 7.67861 16868 303.60
305.28 10.000000 2.750117E-2 0.666668  1.015E-4 7.67841 16937 303.55
305.19 10.000000 2.749530E-2 0.666542  1.015E-4 7.67819 17005 303.50
305.10 10.000000 2.752989E-2 0.666532  1.016E-4 7.67878 17074 303.40
305.01 10.000000 2.750545E-2 0.666492  1.016E-4 7.67889 17142 303.35
304.92 10.000000 2.752979E-2 0.666492  1.015E-4 7.67841 17211 303.35
304.84 10.000000 2.753760E-2 0.666518  1.016E-4 7.67762 17279 303.25
304.76 10.000000 2.755969E-2 0.666476  1.015E-4 7.67826 17348 303.20
304.68 10.000000 2.752127E-2 0.666528  1.016E-4 7.67731 17416 303.10
304.59 10.000000 2.755547E-2 0.666513  1.016E-4 7.67749 17485 303.05
304.51 10.000000 2.754111E-2 0.666478  1.015E-4 7.67689 17553 303.00
304.43 10.000000 2.756182E-2 0.666467  1.015E-4 7.67707 17622 302.95
304.36 10.000000 2.753793E-2 0.666531  1.016E-4 7.67767 17690 302.90
304.29 10.000000 2.754587E-2 0.666540  1.016E-4 7.67744 17759 302.85
304.19 10.000000 2.759431E-2 0.666611  1.015E-4 7.67704 17827 302.75
304.11 10.000000 2.755356E-2 0.666617  1.015E-4 7.67580 17896 302.75
304.08 10.000000 2.756250E-2 0.666622  1.015E-4 7.67615 17964 302.70
304.00 10.000000 2.757986E-2 0.666639  1.015E-4 7.67574 18033 302.65
303.93 10.000000 2.753370E-2 0.666599  1.016E-4 7.67505 18101 302.60
303.86 10.000000 2.753496E-2 0.666603  1.016E-4 7.67550 18170 302.55
303.80 10.000000 2.753513E-2 0.666635  1.015E-4 7.67477 18238 302.50
303.74 10.000000 2.753124E-2 0.666602  1.015E-4 7.67527 18307 302.45
303.67 10.000000 2.753940E-2 0.666608  1.016E-4 7.67546 18375 302.40
303.57 10.000000 2.752688E-2 0.666591  1.015E-4 7.67545 18444 302.35
303.53 10.000000 2.754784E-2 0.666510  1.015E-4 7.67441 18512 302.30
303.46 10.000000 2.752984E-2 0.666529  1.016E-4 7.67435 18581 302.25
303.41 10.000000 2.752793E-2 0.666492  1.016E-4 7.67436 18649 302.20
303.35 10.000000 2.753005E-2 0.666457  1.016E-4 7.67436 18718 302.15
303.29 10.000000 2.751457E-2 0.666481  1.016E-4 7.67395 18786 302.10
303.23 10.000000 2.752836E-2 0.666511  1.016E-4 7.67416 18855 302.05
303.14 10.000000 2.753053E-2 0.666524  1.016E-4 7.67364 18923 302.05
303.12 10.000000 2.752647E-2 0.666530  1.015E-4 7.67326 18992 302.00
303.06 10.000000 2.753917E-2 0.666550  1.016E-4 7.67352 19060 301.95
303.01 10.000000 2.752632E-2 0.666543  1.015E-4 7.67374 19129 301.90
302.95 10.000000 2.753344E-2 0.666527  1.017E-4 7.67339 19197 301.90
302.90 10.000000 2.753529E-2 0.666531  1.016E-4 7.67279 19266 301.80
302.84 10.000000 2.748601E-2 0.666573  1.016E-4 7.67311 19334 301.80
302.75 10.000000 2.748477E-2 0.666589  1.016E-4 7.67343 19403 301.70
302.74 10.000000 2.753696E-2 0.666545  1.017E-4 7.67317 19471 301.70
302.66 10.000000 2.754073E-2 0.666508  1.016E-4 7.67229 19540 301.70
302.61 10.000000 2.755429E-2 0.666559  1.016E-4 7.67319 19608 301.65
302.53 10.000000 2.756659E-2 0.666650  1.016E-4 7.67370 19677 301.60
302.54 10.000000 2.756372E-2 0.666596  1.015E-4 7.67336 19745 301.60
302.49 10.000000 2.757110E-2 0.666630  1.016E-4 7.67362 19814 301.55
302.41 10.000000 2.756856E-2 0.666651  1.016E-4 7.67377 19882 301.50
302.39 10.000000 2.755286E-2 0.666619  1.016E-4 7.67342 19951 301.50
302.34 10.000000 2.755365E-2 0.666559  1.016E-4 7.67367 20019 301.40
302.30 10.000000 2.752844E-2 0.666551  1.016E-4 7.67312 20088 301.40
302.26 10.000000 2.754968E-2 0.666544  1.015E-4 7.67286 20156 301.35
302.21 10.000000 2.754403E-2 0.666513  1.016E-4 7.67298 20225 301.35
302.18 10.000000 2.754129E-2 0.666559  1.016E-4 7.67368 20293 301.30
302.13 10.000000 2.756535E-2 0.666572  1.017E-4 7.67405 20362 301.30
302.09 10.000000 2.758662E-2 0.666627  1.016E-4 7.67404 20430 301.20
302.04 10.000000 2.755317E-2 0.666536  1.016E-4 7.67337 20499 301.20
301.99 10.000000 2.753246E-2 0.666521  1.015E-4 7.67300 20567 301.20
301.94 10.000000 2.754781E-2 0.666505  1.016E-4 7.67288 20636 301.15
301.90 10.000000 2.754688E-2 0.666525  1.015E-4 7.67286 20704 301.10
301.86 10.000000 2.756535E-2 0.666506  1.016E-4 7.67392 20773 301.10
301.82 10.000000 2.754046E-2 0.666500  1.016E-4 7.67380 20841 301.10
301.78 10.000000 2.755426E-2 0.666490  1.015E-4 7.67247 20910 301.00
301.73 10.000000 2.755972E-2 0.666444  1.016E-4 7.67235 20978 301.00
301.72 10.000000 2.754935E-2 0.666460  1.016E-4 7.67341 21047 301.00
301.71 10.000000 2.758354E-2 0.666376  1.016E-4 7.67303 21115 301.00
301.63 10.000000 2.758721E-2 0.666375  1.016E-4 7.67375 21184 300.95
301.60 10.000000 2.757968E-2 0.666442  1.016E-4 7.67389 21252 300.90
301.56 10.000000 2.754787E-2 0.666432  1.016E-4 7.67362 21321 300.90
301.49 10.000000 2.757506E-2 0.666467  1.016E-4 7.67391 21389 300.80
301.47 10.000000 2.758027E-2 0.666511  1.016E-4 7.67419 21458 300.80
301.44 10.000000 2.760356E-2 0.666539  1.016E-4 7.67424 21526 300.80
301.41 10.000000 2.758746E-2 0.666525  1.016E-4 7.67471 21595 300.80
301.38 10.000000 2.756903E-2 0.666507  1.016E-4 7.67407 21663 300.75
301.34 10.000000 2.755334E-2 0.666525  1.016E-4 7.67329 21732 300.70
301.37 10.000000 2.758057E-2 0.666470  1.015E-4 7.67337 21800 300.70
301.28 10.000000 2.758216E-2 0.666493  1.016E-4 7.67360 21869 300.70
301.25 10.000000 2.757730E-2 0.666502  1.016E-4 7.67372 21937 300.70
301.25 10.000000 2.757062E-2 0.666528  1.016E-4 7.67348 22006 300.65
301.25 10.000000 2.758865E-2 0.666563  1.016E-4 7.67393 22074 300.65
301.15 10.000000 2.758715E-2 0.666547  1.016E-4 7.67429 22143 300.60
301.12 10.000000 2.758394E-2 0.666538  1.017E-4 7.67380 22211 300.60
301.13 10.000000 2.759111E-2 0.666492  1.015E-4 7.67214 22280 300.60
301.13 10.000000 2.758010E-2 0.666513  1.016E-4 7.67289 22348 300.55
301.08 10.000000 2.759624E-2 0.666489  1.017E-4 7.67353 22417 300.50
301.02 10.000000 2.758888E-2 0.666518  1.016E-4 7.67340 22485 300.50
300.99 10.000000 2.758999E-2 0.666509  1.016E-4 7.67274 22554 300.50
300.97 10.000000 2.758631E-2 0.666541  1.016E-4 7.67318 22622 300.50
300.95 10.000000 2.759643E-2 0.666567  1.016E-4 7.67361 22691 300.40
300.94 10.000000 2.760668E-2 0.666546  1.016E-4 7.67344 22759 300.40
300.91 10.000000 2.759953E-2 0.666551  1.016E-4 7.67369 22828 300.40
300.90 10.000000 2.760719E-2 0.666570  1.016E-4 7.67348 22896 300.40
300.85 10.000000 2.760167E-2 0.666555  1.016E-4 7.67303 22965 300.40
300.86 10.000000 2.759504E-2 0.666556  1.016E-4 7.67391 23033 300.40
300.81 10.000000 2.759923E-2 0.666537  1.016E-4 7.67337 23102 300.35
300.76 10.000000 2.760345E-2 0.666558  1.016E-4 7.67356 23170 300.35
300.78 10.000000 2.760401E-2 0.666629  1.016E-4 7.67350 23239 300.30
300.72 10.000000 2.758284E-2 0.666548  1.016E-4 7.67330 23307 300.30
300.71 10.000000 2.762130E-2 0.666575  1.016E-4 7.67320 23376 300.30
300.69 10.000000 2.761750E-2 0.666535  1.016E-4 7.67292 23444 300.30
300.67 10.000000 2.762815E-2 0.666624  1.016E-4 7.67344 23513 300.25
300.66 10.000000 2.764905E-2 0.666636  1.016E-4 7.67347 23581 300.20
300.64 10.000000 2.761752E-2 0.666605  1.016E-4 7.67289 23650 300.20
300.63 10.000000 2.763058E-2 0.666580  1.015E-4 7.67272 23718 300.20
300.60 10.000000 2.762550E-2 0.666575  1.016E-4 7.67282 23787 300.20
300.58 10.000000 2.764350E-2 0.666609  1.015E-4 7.67299 23855 300.20
300.56 10.000000 2.763662E-2 0.666629  1.016E-4 7.67317 23924 300.15
300.55 10.000000 2.762340E-2 0.666574  1.016E-4 7.67278 23992 300.20
300.52 10.000000 2.765552E-2 0.666641  1.016E-4 7.67277 24061 300.10
300.50 10.000000 2.765102E-2 0.666620  1.015E-4 7.67302 24129 300.10
300.49 10.000000 2.764477E-2 0.666595  1.016E-4 7.67316 24198 300.10
300.48 10.000000 2.762281E-2 0.666514  1.016E-4 7.67240 24266 300.10
300.46 10.000000 2.763067E-2 0.666509  1.016E-4 7.67171 24335 300.10
300.43 10.000000 2.762821E-2 0.666469  1.016E-4 7.67105 24403 300.10
300.42 10.000000 2.761847E-2 0.666443  1.017E-4 7.67176 24472 300.10
300.39 10.000000 2.759072E-2 0.666500  1.016E-4 7.67133 24540 300.05
300.37 10.000000 2.762314E-2 0.666407  1.017E-4 7.67075 24609 300.00
300.35 10.000000 2.759985E-2 0.666466  1.016E-4 7.67140 24677 300.00
300.34 10.000000 2.759397E-2 0.666456  1.017E-4 7.67122 24746 300.00
300.32 10.000000 2.764375E-2 0.666504  1.016E-4 7.67156 24814 300.00
300.34 10.000000 2.760637E-2 0.666497  1.016E-4 7.67156 24883 300.00
300.29 10.000000 2.762199E-2 0.666470  1.015E-4 7.67170 24951 300.00
300.27 10.000000 2.758147E-2 0.666496  1.016E-4 7.67183 25020 299.95
300.25 10.000000 2.762356E-2 0.666494  1.016E-4 7.67208 25088 299.90
300.24 10.000000 2.762079E-2 0.666505  1.017E-4 7.67128 25157 299.90
300.21 10.000000 2.763143E-2 0.666440  1.016E-4 7.67178 25225 299.90
300.21 10.000000 2.762452E-2 0.666455  1.016E-4 7.67176 25294 299.90
300.20 10.000000 2.761307E-2 0.666501  1.015E-4 7.67092 25362 299.90
300.18 10.000000 2.762139E-2 0.666490  1.016E-4 7.67173 25431 299.90
300.17 10.000000 2.763392E-2 0.666509  1.017E-4 7.67080 25499 299.90
300.15 10.000000 2.761986E-2 0.666493  1.016E-4 7.67126 25568 299.90
300.12 10.000000 2.761757E-2 0.666507  1.016E-4 7.67137 25636 299.90
300.13 10.000000 2.763916E-2 0.666450  1.017E-4 7.67148 25705 299.85
300.12 10.000000 2.763204E-2 0.666472  1.016E-4 7.67135 25773 299.85
300.08 10.000000 2.763077E-2 0.666480  1.016E-4 7.67085 25842 299.80
300.10 10.000000 2.762814E-2 0.666488  1.016E-4 7.67042 25910 299.80
300.06 10.000000 2.762182E-2 0.666482  1.015E-4 7.67053 25979 299.80
300.08 10.000000 2.763488E-2 0.666469  1.017E-4 7.67142 26047 299.80
300.07 10.000000 2.763606E-2 0.666457  1.017E-4 7.67118 26116 299.80
300.04 10.000000 2.764721E-2 0.666434  1.017E-4 7.67086 26184 299.80
300.07 10.000000 2.765890E-2 0.666422  1.016E-4 7.66969 26253 299.80
299.99 10.000000 2.764137E-2 0.666438  1.016E-4 7.67005 26321 299.80
299.98 10.000000 2.762335E-2 0.666459  1.017E-4 7.67097 26390 299.80
299.96 10.000000 2.763358E-2 0.666479  1.016E-4 7.67123 26458 299.75
299.96 10.000000 2.763669E-2 0.666472  1.016E-4 7.67094 26527 299.75
299.96 10.000000 2.764179E-2 0.666491  1.017E-4 7.67090 26595 299.75
299.95 10.000000 2.763584E-2 0.666495  1.017E-4 7.67102 26664 299.70
299.94 10.000000 2.763781E-2 0.666527  1.016E-4 7.67138 26732 299.70
299.93 10.000000 2.764218E-2 0.666569  1.016E-4 7.67209 26801 299.70
299.93 10.000000 2.765973E-2 0.666589  1.016E-4 7.67168 26869 299.70
299.91 10.000000 2.766910E-2 0.666606  1.016E-4 7.67211 26938 299.70
299.90 10.000000 2.765635E-2 0.666604  1.016E-4 7.67187 27006 299.65
299.90 10.000000 2.764240E-2 0.666622  1.017E-4 7.67136 27075 299.70
299.89 10.000000 2.766816E-2 0.666609  1.017E-4 7.67208 27143 299.70
299.88 10.000000 2.765764E-2 0.666590  1.017E-4 7.67183 27212 299.70
299.88 10.000000 2.766454E-2 0.666592  1.016E-4 7.67181 27280 299.70
299.87 10.000000 2.766137E-2 0.666608  1.017E-4 7.67146 27349 299.70
299.86 10.000000 2.764572E-2 0.666559  1.016E-4 7.67100 27417 299.70
299.86 10.000000 2.767099E-2 0.666572  1.015E-4 7.67123 27486 299.65
299.83 10.000000 2.768093E-2 0.666666  1.016E-4 7.67087 27554 299.65
299.82 10.000000 2.766377E-2 0.666624  1.016E-4 7.67145 27623 299.65
299.84 10.000000 2.765746E-2 0.666604  1.016E-4 7.67182 27691 299.65
299.83 10.000000 2.765485E-2 0.666580  1.016E-4 7.67109 27760 299.60
299.77 10.000000 2.765111E-2 0.666564  1.016E-4 7.67098 27828 299.60
299.82 10.000000 2.766883E-2 0.666631  1.017E-4 7.67168 27897 299.60
299.78 10.000000 2.767028E-2 0.666628  1.015E-4 7.66998 27965 299.60
299.74 10.000000 2.766191E-2 0.666614  1.017E-4 7.67125 28034 299.60
299.74 10.000000 2.768594E-2 0.666644  1.016E-4 7.67203 28102 299.60
299.73 10.000000 2.769916E-2 0.666694  1.017E-4 7.67186 28171 299.60
299.72 10.000000 2.767221E-2 0.666644  1.016E-4 7.67145 28239 299.60
299.71 10.000000 2.770218E-2 0.666684  1.016E-4 7.67148 28308 299.55
299.71 10.000000 2.768680E-2 0.666698  1.016E-4 7.67164 28376 299.60
299.74 10.000000 2.769347E-2 0.666684  1.016E-4 7.67138 28445 299.55
299.72 10.000000 2.771010E-2 0.666728  1.016E-4 7.67144 28513 299.55
299.67 10.000000 2.772301E-2 0.666750  1.016E-4 7.67190 28582 299.60
299.68 10.000000 2.773810E-2 0.666765  1.017E-4 7.67216 28650 299.50
299.67 10.000000 2.772908E-2 0.666762  1.016E-4 7.67173 28719 299.55
299.67 10.000000 2.770805E-2 0.666747  1.016E-4 7.67187 28787 299.50
299.66 10.000000 2.771269E-2 0.666751  1.017E-4 7.67156 28856 299.50
299.66 10.000000 2.770323E-2 0.666739  1.016E-4 7.67133 28924 299.50
299.65 10.000000 2.774654E-2 0.666786  1.016E-4 7.67145 28993 299.50
299.66 10.000000 2.774521E-2 0.666791  1.016E-4 7.67247 29061 299.50
299.64 10.000000 2.777088E-2 0.666814  1.016E-4 7.67176 29130 299.50
299.63 10.000000 2.777929E-2 0.666852  1.016E-4 7.67185 29198 299.50
299.62 10.000000 2.778177E-2 0.666853  1.016E-4 7.67182 29267 299.50
299.62 10.000000 2.779208E-2 0.666869  1.016E-4 7.67195 29335 299.50
299.66 10.000000 2.781347E-2 0.666882  1.016E-4 7.67166 29404 299.50
299.64 10.000000 2.779488E-2 0.666895  1.016E-4 7.67142 29472 299.50
299.60 10.000000 2.782403E-2 0.666892  1.016E-4 7.67105 29541 299.50
299.59 10.000000 2.775368E-2 0.666905  1.016E-4 7.67116 29609 299.50
299.65 10.000000 2.783236E-2 0.666899  1.015E-4 7.67065 29678 299.50
299.57 10.000000 2.780079E-2 0.666863  1.016E-4 7.67100 29746 299.50
299.63 10.000000 2.777421E-2 0.666852  1.016E-4 7.67151 29815 299.45
299.59 10.000000 2.781245E-2 0.666847  1.016E-4 7.67134 29883 299.45
299.58 10.000000 2.775897E-2 0.666827  1.015E-4 7.67083 29952 299.40
299.54 10.000000 2.776571E-2 0.666811  1.016E-4 7.67106 30020 299.40
299.57 10.000000 2.778827E-2 0.666788  1.016E-4 7.67129 30089 299.40
299.54 10.000000 2.780050E-2 0.666781  1.015E-4 7.67067 30157 299.40
299.54 10.000000 2.770509E-2 0.666718  1.016E-4 7.67087 30226 299.40
299.53 10.000000 2.774460E-2 0.666747  1.016E-4 7.67051 30294 299.40
299.52 10.000000 2.781233E-2 0.666824  1.015E-4 7.67151 30363 299.40
299.51 10.000000 2.779520E-2 0.666814  1.016E-4 7.67162 30431 299.40
299.51 10.000000 2.779650E-2 0.666873  1.016E-4 7.67126 30500 299.40
299.54 10.000000 2.773137E-2 0.666808  1.016E-4 7.67068 30568 299.40
299.50 10.000000 2.778208E-2 0.666788  1.016E-4 7.67122 30637 299.40
299.50 10.000000 2.778222E-2 0.666807  1.017E-4 7.67178 30705 299.40
299.50 10.000000 2.781111E-2 0.666841  1.016E-4 7.67119 30774 299.40
299.52 10.000000 2.778513E-2 0.666800  1.016E-4 7.67142 30842 299.40
299.49 10.000000 2.783725E-2 0.666862  1.016E-4 7.67104 30911 299.40
299.55 10.000000 2.787127E-2 0.666910  1.016E-4 7.67070 30979 299.40
299.53 10.000000 2.784577E-2 0.666898  1.016E-4 7.67082 31048 299.40
299.47 10.000000 2.784125E-2 0.666863  1.016E-4 7.67118 31116 299.40
299.47 10.000000 2.783834E-2 0.666855  1.016E-4 7.67087 31185 299.40
299.46 10.000000 2.785322E-2 0.666888  1.017E-4 7.67142 31253 299.35
299.46 10.000000 2.783191E-2 0.666884  1.015E-4 7.67123 31322 299.40
299.51 10.000000 2.786232E-2 0.666929  1.015E-4 7.67089 31390 299.40
299.48 10.000000 2.785539E-2 0.666922  1.016E-4 7.67120 31459 299.40
299.49 10.000000 2.785874E-2 0.666924  1.016E-4 7.67158 31527 299.30
299.49 10.000000 2.786332E-2 0.666963  1.016E-4 7.67072 31596 299.35
299.48 10.000000 2.789728E-2 0.666992  1.016E-4 7.67079 31664 299.35
299.47 10.000000 2.791912E-2 0.666989  1.016E-4 7.67069 31733 299.30
299.47 10.000000 2.788877E-2 0.667000  1.016E-4 7.67072 31801 299.35
299.44 10.000000 2.798266E-2 0.667027  1.015E-4 7.66947 31870 299.30
299.45 10.000000 2.792072E-2 0.667057  1.016E-4 7.67001 31938 299.30
299.42 10.000000 2.794220E-2 0.667042  1.016E-4 7.67066 32007 299.35
299.43 10.000000 2.794814E-2 0.667054  1.016E-4 7.67094 32075 299.40
299.43 10.000000 2.794442E-2 0.667038  1.016E-4 7.67032 32144 299.40
299.44 10.000000 2.794291E-2 0.667039  1.016E-4 7.67012 32212 299.40
299.45 10.000000 2.793640E-2 0.667033  1.016E-4 7.66969 32281 299.40
299.45 10.000000 2.793871E-2 0.667012  1.016E-4 7.67053 32349 299.35
299.43 10.000000 2.792526E-2 0.666998  1.015E-4 7.67046 32418 299.30
299.43 10.000000 2.790816E-2 0.666990  1.016E-4 7.67112 32486 299.30
299.43 10.000000 2.790054E-2 0.666983  1.015E-4 7.67092 32555 299.30
299.40 10.000000 2.794424E-2 0.667007  1.016E-4 7.67115 32623 299.30
299.36 10.000000 2.780723E-2 0.666965  1.016E-4 7.67060 32692 299.30
299.36 10.000000 2.791954E-2 0.666946  1.016E-4 7.67130 32760 299.30
299.37 10.000000 2.790671E-2 0.666969  1.016E-4 7.67089 32829 299.30
299.37 10.000000 2.789555E-2 0.666983  1.016E-4 7.67074 32897 299.30
299.37 10.000000 2.792593E-2 0.667008  1.016E-4 7.67081 32966 299.30
299.37 10.000000 2.792370E-2 0.667016  1.015E-4 7.67100 33034 299.30
299.36 10.000000 2.798779E-2 0.667037  1.015E-4 7.66996 33103 299.30
299.35 10.000000 2.795346E-2 0.667118  1.016E-4 7.67082 33171 299.30
299.36 10.000000 2.781647E-2 0.667101  1.016E-4 7.67071 33240 299.30
299.34 10.000000 2.800504E-2 0.667023  1.016E-4 7.67031 33308 299.30
299.34 10.000000 2.806124E-2 0.667039  1.016E-4 7.67084 33377 299.30
299.34 10.000000 2.795982E-2 0.666979  1.016E-4 7.67018 33445 299.30
299.34 10.000000 2.793951E-2 0.667000  1.016E-4 7.67080 33514 299.30
299.36 10.000000 2.790824E-2 0.666948  1.016E-4 7.67027 33582 299.30
299.32 10.000000 2.787720E-2 0.667002  1.015E-4 7.67023 33651 299.30
299.33 10.000000 2.799814E-2 0.667021  1.016E-4 7.67038 33719 299.30
299.38 10.000000 2.787550E-2 0.666984  1.016E-4 7.67034 33788 299.30
299.38 10.000000 2.789462E-2 0.666977  1.015E-4 7.66943 33856 299.30
299.37 10.000000 2.795781E-2 0.666976  1.015E-4 7.66961 33925 299.25
299.37 10.000000 2.789213E-2 0.666978  1.016E-4 7.66982 33993 299.30
299.33 10.000000 2.782961E-2 0.666944  1.016E-4 7.66945 34062 299.30
299.33 10.000000 2.785928E-2 0.666953  1.016E-4 7.66998 34130 299.30
299.30 10.000000 2.795963E-2 0.667005  1.015E-4 7.66957 34199 299.30
299.30 10.000000 2.793366E-2 0.667008  1.016E-4 7.66981 34267 299.30
299.30 10.000000 2.788363E-2 0.666991  1.016E-4 7.67071 34336 299.25
299.29 10.000000 2.794637E-2 0.666993  1.016E-4 7.67065 34404 299.25
299.28 10.000000 2.792025E-2 0.666957  1.015E-4 7.67053 34473 299.25
299.28 10.000000 2.794423E-2 0.666992  1.016E-4 7.66997 34541 299.25
299.34 10.000000 2.790154E-2 0.666992  1.015E-4 7.67027 34610 299.30
299.34 10.000000 2.791563E-2 0.667016  1.016E-4 7.66987 34678 299.30
299.33 10.000000 2.789588E-2 0.667042  1.016E-4 7.67020 34747 299.25
299.29 10.000000 2.805994E-2 0.667081  1.015E-4 7.66959 34815 299.25
299.33 10.000000 2.803644E-2 0.667014  1.016E-4 7.66981 34884 299.20
299.32 10.000000 2.803089E-2 0.667058  1.016E-4 7.67021 34952 299.25
299.32 10.000000 2.805986E-2 0.667031  1.015E-4 7.66982 35021 299.25
299.31 10.000000 2.800084E-2 0.667107  1.015E-4 7.66972 35089 299.30
299.31 10.000000 2.788526E-2 0.667012  1.016E-4 7.67015 35158 299.25
299.27 10.000000 2.791489E-2 0.667023  1.017E-4 7.67005 35226 299.25
299.27 10.000000 2.796751E-2 0.667012  1.016E-4 7.66956 35295 299.20
299.28 10.000000 2.777013E-2 0.666948  1.016E-4 7.66989 35363 299.25
299.27 10.000000 2.788974E-2 0.666953  1.016E-4 7.66956 35432 299.20
299.25 10.000000 2.782878E-2 0.666921  1.016E-4 7.66968 35500 299.20
299.27 10.000000 2.784386E-2 0.666878  1.016E-4 7.66993 35569 299.20
299.27 10.000000 2.784083E-2 0.666903  1.016E-4 7.67004 35637 299.20
299.31 10.000000 2.778800E-2 0.666916  1.016E-4 7.67015 35706 299.20
299.31 10.000000 2.787784E-2 0.666936  1.015E-4 7.66917 35774 299.25
299.28 10.000000 2.788828E-2 0.666982  1.016E-4 7.66973 35843 299.25
299.24 10.000000 2.788359E-2 0.666957  1.016E-4 7.66899 35911 299.20
299.24 10.000000 2.790041E-2 0.666995  1.015E-4 7.66965 35980 299.25
299.25 10.000000 2.790696E-2 0.666994  1.016E-4 7.66958 36048 299.20
299.25 10.000000 2.789924E-2 0.667011  1.016E-4 7.66980 36117 299.20
299.25 10.000000 2.796125E-2 0.667037  1.016E-4 7.66971 36185 299.20
299.24 10.000000 2.791936E-2 0.667122  1.015E-4 7.66923 36254 299.20
299.25 10.000000 2.799724E-2 0.667086  1.015E-4 7.66954 36322 299.20
299.25 10.000000 2.793925E-2 0.667100  1.015E-4 7.66895 36391 299.20
299.25 10.000000 2.797934E-2 0.667101  1.015E-4 7.66931 36459 299.20
299.24 10.000000 2.798008E-2 0.667112  1.016E-4 7.66930 36528 299.20
299.25 10.000000 2.793193E-2 0.667073  1.016E-4 7.66949 36596 299.20
299.25 10.000000 2.794574E-2 0.667111  1.016E-4 7.66895 36665 299.20
299.25 10.000000 2.791693E-2 0.667105  1.015E-4 7.66884 36733 299.20
299.25 10.000000 2.799589E-2 0.667130  1.016E-4 7.66957 36802 299.20
299.25 10.000000 2.790004E-2 0.667194  1.016E-4 7.66895 36870 299.20
299.25 10.000000 2.803893E-2 0.667165  1.016E-4 7.66898 36939 299.20
299.24 10.000000 2.801405E-2 0.667146  1.015E-4 7.66844 37007 299.20
299.19 10.000000 2.802299E-2 0.667196  1.016E-4 7.66886 37076 299.20
299.23 10.000000 2.807803E-2 0.667161  1.016E-4 7.66926 37144 299.20
299.26 10.000000 2.802173E-2 0.667161  1.016E-4 7.66910 37213 299.20
299.26 10.000000 2.795543E-2 0.667144  1.015E-4 7.66935 37281 299.20
299.19 10.000000 2.803400E-2 0.667165  1.016E-4 7.66950 37350 299.20
299.23 10.000000 2.801109E-2 0.667205  1.015E-4 7.66843 37418 299.20
299.22 10.000000 2.785327E-2 0.667178  1.016E-4 7.66906 37487 299.20
299.19 10.000000 2.797187E-2 0.667254  1.016E-4 7.66884 37555 299.20
299.22 10.000000 2.786491E-2 0.667201  1.015E-4 7.66828 37624 299.20
299.19 10.000000 2.796683E-2 0.667184  1.016E-4 7.66870 37692 299.20
299.22 10.000000 2.797437E-2 0.667200  1.016E-4 7.66887 37761 299.20
299.21 10.000000 2.806623E-2 0.667217  1.016E-4 7.66841 37829 299.20
299.18 10.000000 2.791407E-2 0.667170  1.016E-4 7.66777 37898 299.15
299.19 10.000000 2.786334E-2 0.667211  1.016E-4 7.66915 37966 299.20
299.20 10.000000 2.794670E-2 0.667243  1.016E-4 7.66839 38035 299.20
299.19 10.000000 2.803065E-2 0.667219  1.016E-4 7.66842 38103 299.20
299.18 10.000000 2.808148E-2 0.667169  1.016E-4 7.66782 38172 299.20
299.17 10.000000 2.810020E-2 0.667240  1.016E-4 7.66780 38240 299.10
299.20 10.000000 2.800713E-2 0.667289  1.016E-4 7.66799 38309 299.15
299.17 10.000000 2.802326E-2 0.667276  1.015E-4 7.66721 38377 299.20
299.17 10.000000 2.810308E-2 0.667230  1.016E-4 7.66861 38446 299.20
299.17 10.000000 2.813404E-2 0.667294  1.016E-4 7.66781 38514 299.15
299.18 10.000000 2.801923E-2 0.667240  1.015E-4 7.66771 38583 299.15
299.18 10.000000 2.797761E-2 0.667215  1.016E-4 7.66786 38651 299.15
299.18 10.000000 2.802459E-2 0.667295  1.016E-4 7.66728 38720 299.20
299.20 10.000000 2.812173E-2 0.667295  1.015E-4 7.66737 38788 299.15
299.22 10.000000 2.806757E-2 0.667315  1.016E-4 7.66786 38857 299.15
299.22 10.000000 2.818556E-2 0.667276  1.016E-4 7.66716 38925 299.20
299.22 10.000000 2.800735E-2 0.667268  1.015E-4 7.66778 38994 299.10
299.21 10.000000 2.802102E-2 0.667218  1.015E-4 7.66804 39062 299.15
299.17 10.000000 2.797117E-2 0.667250  1.015E-4 7.66818 39131 299.10
299.21 10.000000 2.804519E-2 0.667257  1.016E-4 7.66773 39199 299.10
299.20 10.000000 2.802443E-2 0.667270  1.015E-4 7.66743 39268 299.10
299.19 10.000000 2.806247E-2 0.667289  1.016E-4 7.66683 39336 299.15
299.19 10.000000 2.801608E-2 0.667296  1.016E-4 7.66646 39405 299.10
299.19 10.000000 2.807766E-2 0.667238  1.016E-4 7.66750 39473 299.10
299.19 10.000000 2.815381E-2 0.667349  1.016E-4 7.66695 39542 299.10
299.20 10.000000 2.801311E-2 0.667271  1.015E-4 7.66716 39610 299.10
299.19 10.000000 2.803079E-2 0.667364  1.016E-4 7.66731 39679 299.15
299.18 10.000000 2.812961E-2 0.667249  1.016E-4 7.66695 39747 299.10
299.17 10.000000 2.815100E-2 0.667266  1.016E-4 7.66734 39816 299.10
299.18 10.000000 2.803355E-2 0.667287  1.016E-4 7.66726 39884 299.10
299.18 10.000000 2.802425E-2 0.667297  1.015E-4 7.66777 39953 299.10
299.19 10.000000 2.797513E-2 0.667321  1.016E-4 7.66765 40021 299.10
299.18 10.000000 2.805860E-2 0.667300  1.015E-4 7.66702 40090 299.10
299.17 10.000000 2.804834E-2 0.667294  1.016E-4 7.66782 40158 299.10
299.18 10.000000 2.799439E-2 0.667250  1.016E-4 7.66757 40227 299.10
299.16 10.000000 2.802982E-2 0.667297  1.015E-4 7.66782 40295 299.10
299.13 10.000000 2.804092E-2 0.667259  1.015E-4 7.66783 40364 299.10
299.13 10.000000 2.801560E-2 0.667315  1.015E-4 7.66817 40432 299.10
299.13 10.000000 2.815388E-2 0.667224  1.016E-4 7.66721 40501 299.10
299.15 10.000000 2.804984E-2 0.667244  1.016E-4 7.66736 40569 299.10
299.15 10.000000 2.811156E-2 0.667278  1.016E-4 7.66778 40638 299.10
299.15 10.000000 2.786234E-2 0.667318  1.015E-4 7.66716 40706 299.10
299.16 10.000000 2.806286E-2 0.667283  1.015E-4 7.66777 40775 299.10
299.16 10.000000 2.815312E-2 0.667309  1.016E-4 7.66721 40843 299.10
299.12 10.000000 2.812074E-2 0.667354  1.016E-4 7.66802 40912 299.10
299.16 10.000000 2.790659E-2 0.667272  1.016E-4 7.66754 40980 299.10
299.12 10.000000 2.817551E-2 0.667277  1.016E-4 7.66739 41049 299.10
299.09 10.000000 2.800710E-2 0.667278  1.015E-4 7.66720 41117 299.10
299.09 10.000000 2.803736E-2 0.667293  1.016E-4 7.66716 41186 299.10
299.08 10.000000 2.794716E-2 0.667330  1.016E-4 7.66730 41254 299.10
299.09 10.000000 2.805040E-2 0.667247  1.017E-4 7.66796 41323 299.10
299.10 10.000000 2.783659E-2 0.667303  1.016E-4 7.66741 41391 299.10
299.09 10.000000 2.804673E-2 0.667281  1.016E-4 7.66678 41460 299.10
299.12 10.000000 2.808979E-2 0.667213  1.016E-4 7.66754 41528 299.10
299.15 10.000000 2.783155E-2 0.667276  1.015E-4 7.66780 41597 299.10
299.14 10.000000 2.789298E-2 0.667260  1.016E-4 7.66798 41665 299.10
299.10 10.000000 2.801075E-2 0.667269  1.016E-4 7.66758 41734 299.10
299.13 10.000000 2.803913E-2 0.667286  1.016E-4 7.66729 41802 299.10
299.12 10.000000 2.805698E-2 0.667263  1.016E-4 7.66727 41871 299.10
299.12 10.000000 2.802360E-2 0.667323  1.016E-4 7.66771 41939 299.10
299.12 10.000000 2.798191E-2 0.667354  1.016E-4 7.66739 42008 299.10
299.13 10.000000 2.817492E-2 0.667259  1.016E-4 7.66761 42076 299.10
299.12 10.000000 2.800555E-2 0.667318  1.016E-4 7.66758 42145 299.10
299.12 10.000000 2.805589E-2 0.667296  1.015E-4 7.66759 42213 299.10
299.11 10.000000 2.798160E-2 0.667337  1.015E-4 7.66718 42282 299.10
299.11 10.000000 2.804882E-2 0.667287  1.016E-4 7.66739 42350 299.05
299.11 10.000000 2.806154E-2 0.667352  1.016E-4 7.66759 42419 299.10
299.10 10.000000 2.796562E-2 0.667358  1.015E-4 7.66685 42487 299.10
299.09 10.000000 2.799813E-2 0.667309  1.016E-4 7.66667 42556 299.10
299.10 10.000000 2.816592E-2 0.667364  1.015E-4 7.66657 42624 299.05
299.10 10.000000 2.816989E-2 0.667354  1.016E-4 7.66656 42693 299.10
299.10 10.000000 2.805521E-2 0.667317  1.016E-4 7.66652 42761 299.10
299.09 10.000000 2.797102E-2 0.667395  1.016E-4 7.66687 42830 299.05
299.08 10.000000 2.807817E-2 0.667283  1.016E-4 7.66686 42898 299.00
299.09 10.000000 2.795967E-2 0.667388  1.016E-4 7.66670 42967 299.10
299.08 10.000000 2.810286E-2 0.667271  1.015E-4 7.66629 43035 299.10
299.08 10.000000 2.788417E-2 0.667362  1.015E-4 7.66651 43104 299.10
299.08 10.000000 2.806550E-2 0.667322  1.016E-4 7.66749 43172 299.00
299.08 10.000000 2.787215E-2 0.667330  1.016E-4 7.66635 43241 299.00
299.08 10.000000 2.805876E-2 0.667289  1.016E-4 7.66667 43309 299.05
299.07 10.000000 2.803154E-2 0.667394  1.016E-4 7.66703 43378 299.00
299.06 10.000000 2.805839E-2 0.667331  1.016E-4 7.66637 43446 299.05
299.06 10.000000 2.804735E-2 0.667330  1.016E-4 7.66745 43515 299.00
299.05 10.000000 2.803906E-2 0.667334  1.015E-4 7.66721 43583 299.05
299.04 10.000000 2.803716E-2 0.667335  1.016E-4 7.66623 43652 299.10
299.04 10.000000 2.800411E-2 0.667350  1.015E-4 7.66664 43720 299.05
299.04 10.000000 2.802997E-2 0.667338  1.016E-4 7.66681 43789 299.05
299.07 10.000000 2.803061E-2 0.667340  1.016E-4 7.66632 43857 299.00
299.04 10.000000 2.803565E-2 0.667335  1.015E-4 7.66635 43926 299.00
299.05 10.000000 2.795709E-2 0.667369  1.016E-4 7.66608 43994 299.05
299.04 10.000000 2.800031E-2 0.667364  1.015E-4 7.66665 44063 299.05
299.05 10.000000 2.808548E-2 0.667388  1.016E-4 7.66567 44131 299.05
299.05 10.000000 2.815207E-2 0.667326  1.015E-4 7.66589 44200 299.05
299.05 10.000000 2.810127E-2 0.667320  1.016E-4 7.66596 44268 299.05
299.04 10.000000 2.805256E-2 0.667346  1.017E-4 7.66641 44337 299.00
299.04 10.000000 2.815746E-2 0.667287  1.016E-4 7.66643 44405 299.00
299.04 10.000000 2.818088E-2 0.667309  1.017E-4 7.66622 44474 299.00
299.03 10.000000 2.801794E-2 0.667376  1.015E-4 7.66603 44542 299.00
299.03 10.000000 2.804774E-2 0.667384  1.015E-4 7.66634 44611 299.00
299.06 10.000000 2.818072E-2 0.667403  1.015E-4 7.66663 44679 299.05
299.02 10.000000 2.816147E-2 0.667385  1.016E-4 7.66652 44748 299.05
299.03 10.000000 2.812798E-2 0.667297  1.016E-4 7.66649 44816 299.00
299.02 10.000000 2.804483E-2 0.667323  1.017E-4 7.66755 44885 299.00
299.03 10.000000 2.809526E-2 0.667319  1.016E-4 7.66673 44953 299.00
299.03 10.000000 2.805783E-2 0.667345  1.016E-4 7.66738 45022 299.05
299.03 10.000000 2.785291E-2 0.667349  1.016E-4 7.66637 45090 299.05
299.03 10.000000 2.807359E-2 0.667359  1.016E-4 7.66634 45159 299.00
299.03 10.000000 2.809629E-2 0.667295  1.016E-4 7.66694 45227 299.00
299.05 10.000000 2.802623E-2 0.667348  1.016E-4 7.66629 45296 299.00
299.04 10.000000 2.801658E-2 0.667344  1.016E-4 7.66708 45364 299.00
299.05 10.000000 2.809909E-2 0.667276  1.016E-4 7.66624 45433 299.00
299.04 10.000000 2.804687E-2 0.667295  1.016E-4 7.66660 45501 299.00
299.05 10.000000 2.816072E-2 0.667399  1.016E-4 7.66669 45570 299.00
299.02 10.000000 2.809737E-2 0.667420  1.017E-4 7.66637 45638 299.00
298.99 10.000000 2.815113E-2 0.667327  1.017E-4 7.66618 45707 299.00
299.02 10.000000 2.794752E-2 0.667376  1.015E-4 7.66555 45775 299.00
299.00 10.000000 2.818087E-2 0.667405  1.015E-4 7.66497 45844 299.00
299.02 10.000000 2.789576E-2 0.667408  1.016E-4 7.66545 45912 299.00
299.02 10.000000 2.782754E-2 0.667391  1.015E-4 7.66478 45981 299.00
299.03 10.000000 2.786278E-2 0.667367  1.017E-4 7.66595 46049 299.00
299.03 10.000000 2.781135E-2 0.667399  1.015E-4 7.66568 46118 299.00
299.03 10.000000 2.795143E-2 0.667371  1.016E-4 7.66477 46186 299.00
299.04 10.000000 2.796960E-2 0.667354  1.016E-4 7.66538 46255 299.00
299.04 10.000000 2.798012E-2 0.667375  1.016E-4 7.66553 46323 299.00
299.04 10.000000 2.801682E-2 0.667349  1.015E-4 7.66493 46392 299.00
299.04 10.000000 2.786133E-2 0.667352  1.016E-4 7.66487 46460 299.00
299.04 10.000000 2.795364E-2 0.667379  1.017E-4 7.66593 46529 299.00
299.04 10.000000 2.800177E-2 0.667379  1.015E-4 7.66505 46597 299.00
299.04 10.000000 2.814056E-2 0.667309  1.016E-4 7.66521 46666 299.00
299.04 10.000000 2.806860E-2 0.667287  1.016E-4 7.66573 46734 299.00
299.04 10.000000 2.789356E-2 0.667345  1.016E-4 7.66560 46803 299.00
299.04 10.000000 2.816201E-2 0.667349  1.016E-4 7.66557 46871 299.00
299.03 10.000000 2.785968E-2 0.667389  1.016E-4 7.66530 46940 299.00
299.03 10.000000 2.794129E-2 0.667373  1.016E-4 7.66536 47008 299.00
299.03 10.000000 2.801342E-2 0.667365  1.015E-4 7.66468 47077 299.00
299.01 10.000000 2.799197E-2 0.667355  1.016E-4 7.66535 47145 299.00
299.00 10.000000 2.800120E-2 0.667376  1.017E-4 7.66521 47214 299.00
299.00 10.000000 2.801171E-2 0.667373  1.016E-4 7.66507 47282 298.95
299.00 10.000000 2.800987E-2 0.667375  1.016E-4 7.66547 47351 299.00
299.00 10.000000 2.801528E-2 0.667370  1.016E-4 7.66530 47419 299.00
299.00 10.000000 2.804719E-2 0.667366  1.017E-4 7.66497 47488 299.00
299.00 10.000000 2.799170E-2 0.667371  1.016E-4 7.66505 47556 299.00
299.00 10.000000 2.796850E-2 0.667385  1.017E-4 7.66583 47625 299.00
299.01 10.000000 2.794225E-2 0.667433  1.016E-4 7.66598 47693 299.00
299.00 10.000000 2.810998E-2 0.667316  1.015E-4 7.66480 47762 299.00
299.01 10.000000 2.786461E-2 0.667388  1.016E-4 7.66512 47830 299.00
299.01 10.000000 2.798176E-2 0.667438  1.015E-4 7.66547 47899 299.00
299.02 10.000000 2.801572E-2 0.667366  1.016E-4 7.66547 47967 299.00
299.02 10.000000 2.801015E-2 0.667399  1.016E-4 7.66477 48036 299.00
299.03 10.000000 2.796868E-2 0.667380  1.016E-4 7.66457 48104 299.00
299.03 10.000000 2.799972E-2 0.667349  1.016E-4 7.66463 48173 299.00
299.02 10.000000 2.801725E-2 0.667385  1.016E-4 7.66527 48241 299.00
299.01 10.000000 2.800716E-2 0.667377  1.016E-4 7.66493 48310 299.00
299.02 10.000000 2.775472E-2 0.667390  1.016E-4 7.66431 48378 298.95
299.01 10.000000 2.797214E-2 0.667402  1.016E-4 7.66478 48447 299.00
299.01 10.000000 2.797553E-2 0.667381  1.016E-4 7.66515 48515 299.00
299.01 10.000000 2.800240E-2 0.667345  1.016E-4 7.66480 48584 299.00
299.01 10.000000 2.799370E-2 0.667362  1.016E-4 7.66451 48652 299.00
299.00 10.000000 2.783916E-2 0.667342  1.016E-4 7.66448 48721 299.00
299.00 10.000000 2.795542E-2 0.667350  1.016E-4 7.66442 48789 298.95
299.00 10.000000 2.803735E-2 0.667383  1.017E-4 7.66460 48858 298.95
299.00 10.000000 2.788972E-2 0.667344  1.016E-4 7.66480 48926 299.00
299.01 10.000000 2.816786E-2 0.667357  1.016E-4 7.66452 48995 299.00
299.00 10.000000 2.801383E-2 0.667463  1.016E-4 7.66454 49063 298.95
299.00 10.000000 2.802191E-2 0.667399  1.017E-4 7.66510 49132 298.90
299.00 10.000000 2.791589E-2 0.667426  1.016E-4 7.66465 49200 298.95
298.99 10.000000 2.814946E-2 0.667421  1.016E-4 7.66432 49269 299.00
298.99 10.000000 2.792686E-2 0.667441  1.016E-4 7.66504 49337 298.95
298.99 10.000000 2.809480E-2 0.667450  1.016E-4 7.66450 49406 299.00
298.97 10.000000 2.800977E-2 0.667404  1.016E-4 7.66527 49474 299.00
298.98 10.000000 2.800826E-2 0.667409  1.016E-4 7.66494 49543 298.95
298.98 10.000000 2.796982E-2 0.667386  1.015E-4 7.66429 49611 299.00
298.97 10.000000 2.797431E-2 0.667378  1.016E-4 7.66504 49680 299.00
298.96 10.000000 2.809238E-2 0.667432  1.016E-4 7.66444 49748 299.00
298.95 10.000000 2.816570E-2 0.667406  1.016E-4 7.66452 49817 298.95
298.94 10.000000 2.794614E-2 0.667452  1.016E-4 7.66430 49885 298.95
298.94 10.000000 2.792643E-2 0.667416  1.016E-4 7.66435 49954 298.90
298.95 10.000000 2.789771E-2 0.667459  1.016E-4 7.66415 50022 298.95
298.94 10.000000 2.800655E-2 0.667417  1.016E-4 7.66417 50091 299.00
298.94 10.000000 2.809620E-2 0.667367  1.016E-4 7.66482 50159 298.90
298.93 10.000000 2.796579E-2 0.667437  1.016E-4 7.66500 50228 298.90
298.94 10.000000 2.817546E-2 0.667359  1.016E-4 7.66425 50296 298.90
298.94 10.000000 2.794896E-2 0.667446  1.016E-4 7.66473 50365 298.95
299.00 10.000000 2.803630E-2 0.667429  1.016E-4 7.66500 50433 298.90
299.00 10.000000 2.802480E-2 0.667396  1.015E-4 7.66468 50502 298.90
299.00 10.000000 2.802711E-2 0.667438  1.016E-4 7.66497 50570 298.90
298.99 10.000000 2.805931E-2 0.667426  1.016E-4 7.66518 50639 298.90
298.98 10.000000 2.801536E-2 0.667434  1.016E-4 7.66484 50707 298.90
298.97 10.000000 2.800868E-2 0.667409  1.016E-4 7.66501 50776 298.95
298.96 10.000000 2.801503E-2 0.667425  1.016E-4 7.66512 50844 298.90
298.97 10.000000 2.803295E-2 0.667409  1.016E-4 7.66515 50913 298.95
298.97 10.000000 2.795212E-2 0.667435  1.017E-4 7.66549 50981 298.90
298.98 10.000000 2.793176E-2 0.667419  1.016E-4 7.66474 51050 298.90
298.97 10.000000 2.788179E-2 0.667434  1.016E-4 7.66542 51118 298.90
298.96 10.000000 2.800299E-2 0.667491  1.016E-4 7.66465 51187 298.90
298.97 10.000000 2.805210E-2 0.667490  1.017E-4 7.66471 51255 298.90
298.97 10.000000 2.805622E-2 0.667402  1.016E-4 7.66462 51324 298.90
298.97 10.000000 2.786236E-2 0.667477  1.017E-4 7.66480 51392 298.90
298.97 10.000000 2.805875E-2 0.667451  1.016E-4 7.66551 51461 298.90
298.96 10.000000 2.793959E-2 0.667461  1.016E-4 7.66466 51529 298.90
298.94 10.000000 2.802959E-2 0.667423  1.016E-4 7.66453 51598 298.90
298.97 10.000000 2.808241E-2 0.667472  1.016E-4 7.66435 51666 298.90
298.97 10.000000 2.805118E-2 0.667397  1.016E-4 7.66406 51735 298.90
298.93 10.000000 2.796766E-2 0.667414  1.016E-4 7.66438 51803 298.90
298.94 10.000000 2.807997E-2 0.667423  1.016E-4 7.66430 51872 298.90
298.94 10.000000 2.800870E-2 0.667439  1.016E-4 7.66444 51940 298.90
298.95 10.000000 2.799487E-2 0.667421  1.015E-4 7.66367 52009 298.90
298.97 10.000000 2.798564E-2 0.667407  1.017E-4 7.66394 52077 298.90
298.94 10.000000 2.813830E-2 0.667452  1.016E-4 7.66409 52146 298.90
298.97 10.000000 2.795302E-2 0.667336  1.016E-4 7.66448 52214 298.90
298.97 10.000000 2.802339E-2 0.667472  1.016E-4 7.66416 52283 298.90
298.96 10.000000 2.784994E-2 0.667405  1.016E-4 7.66448 52351 298.90
298.90 10.000000 2.805897E-2 0.667403  1.016E-4 7.66386 52420 298.90
298.97 10.000000 2.805847E-2 0.667473  1.016E-4 7.66362 52488 298.90
298.96 10.000000 2.790314E-2 0.667428  1.016E-4 7.66405 52557 298.90
298.96 10.000000 2.799105E-2 0.667435  1.016E-4 7.66405 52625 298.95
298.96 10.000000 2.803790E-2 0.667425  1.016E-4 7.66481 52694 298.90
298.96 10.000000 2.791957E-2 0.667449  1.016E-4 7.66426 52762 298.90
298.96 10.000000 2.809922E-2 0.667370  1.017E-4 7.66458 52831 298.95
298.97 10.000000 2.809865E-2 0.667449  1.016E-4 7.66465 52899 298.90
298.93 10.000000 2.796029E-2 0.667431  1.016E-4 7.66413 52968 298.90
298.96 10.000000 2.798314E-2 0.667427  1.016E-4 7.66409 53036 298.90
298.95 10.000000 2.803313E-2 0.667418  1.016E-4 7.66371 53105 298.90
298.95 10.000000 2.800025E-2 0.667416  1.016E-4 7.66339 53173 298.90
298.95 10.000000 2.797861E-2 0.667427  1.017E-4 7.66467 53242 298.90
298.95 10.000000 2.801357E-2 0.667431  1.017E-4 7.66423 53310 298.90
298.92 10.000000 2.798696E-2 0.667438  1.016E-4 7.66424 53379 298.90
298.93 10.000000 2.796954E-2 0.667390  1.016E-4 7.66426 53447 298.90
298.94 10.000000 2.801206E-2 0.667429  1.016E-4 7.66427 53516 298.95
298.93 10.000000 2.800165E-2 0.667444  1.016E-4 7.66440 53584 298.90
298.93 10.000000 2.800962E-2 0.667449  1.016E-4 7.66448 53653 298.90
298.90 10.000000 2.796513E-2 0.667449  1.016E-4 7.66423 53721 298.90
298.90 10.000000 2.796612E-2 0.667426  1.016E-4 7.66380 53790 298.90
298.91 10.000000 2.791901E-2 0.667400  1.016E-4 7.66356 53858 298.90
298.91 10.000000 2.794617E-2 0.667417  1.016E-4 7.66411 53927 298.90
298.92 10.000000 2.794646E-2 0.667438  1.017E-4 7.66387 53995 298.90
298.92 10.000000 2.798552E-2 0.667434  1.016E-4 7.66356 54064 298.90
298.93 10.000000 2.796754E-2 0.667419  1.017E-4 7.66389 54132 298.90
298.90 10.000000 2.798450E-2 0.667406  1.016E-4 7.66367 54201 298.90
298.91 10.000000 2.796699E-2 0.667427  1.016E-4 7.66406 54269 298.90
298.91 10.000000 2.795836E-2 0.667409  1.016E-4 7.66430 54338 298.90
298.91 10.000000 2.794613E-2 0.667409  1.016E-4 7.66332 54406 298.90
298.95 10.000000 2.797328E-2 0.667432  1.016E-4 7.66344 54475 298.90
298.95 10.000000 2.800114E-2 0.667422  1.016E-4 7.66372 54543 298.90
298.95 10.000000 2.793339E-2 0.667409  1.017E-4 7.66431 54612 298.90
298.95 10.000000 2.788343E-2 0.667423  1.017E-4 7.66389 54680 298.90
298.95 10.000000 2.795583E-2 0.667416  1.016E-4 7.66365 54749 298.90
298.92 10.000000 2.789954E-2 0.667400  1.017E-4 7.66376 54817 298.90
298.92 10.000000 2.787043E-2 0.667386  1.017E-4 7.66370 54886 298.90
298.95 10.000000 2.790610E-2 0.667375  1.016E-4 7.66373 54954 298.90
298.92 10.000000 2.790842E-2 0.667370  1.016E-4 7.66377 55023 298.90
298.88 10.000000 2.786835E-2 0.667378  1.017E-4 7.66298 55091 298.90
298.88 10.000000 2.788608E-2 0.667405  1.016E-4 7.66333 55160 298.90
298.89 10.000000 2.792362E-2 0.667382  1.017E-4 7.66431 55228 298.90
298.90 10.000000 2.784151E-2 0.667354  1.016E-4 7.66397 55297 298.90
298.89 10.000000 2.790074E-2 0.667367  1.017E-4 7.66403 55365 298.90
298.89 10.000000 2.791239E-2 0.667383  1.016E-4 7.66361 55434 298.90
298.89 10.000000 2.795725E-2 0.667312  1.016E-4 7.66324 55502 298.90
298.89 10.000000 2.792691E-2 0.667414  1.016E-4 7.66315 55571 298.90
298.89 10.000000 2.791479E-2 0.667414  1.016E-4 7.66289 55639 298.90
298.90 10.000000 2.791463E-2 0.667399  1.017E-4 7.66348 55708 298.90
298.91 10.000000 2.785414E-2 0.667379  1.016E-4 7.66362 55776 298.90
298.91 10.000000 2.781179E-2 0.667342  1.017E-4 7.66343 55845 298.90
298.92 10.000000 2.777182E-2 0.667295  1.016E-4 7.66381 55913 298.95
298.94 10.000000 2.777927E-2 0.667305  1.016E-4 7.66351 55982 298.90
298.90 10.000000 2.782003E-2 0.667313  1.016E-4 7.66334 56050 298.90
298.91 10.000000 2.762590E-2 0.667259  1.016E-4 7.66386 56119 298.90
298.92 10.000000 2.784998E-2 0.667259  1.016E-4 7.66395 56187 298.90
298.92 10.000000 2.778420E-2 0.667394  1.016E-4 7.66334 56256 298.90
298.92 10.000000 2.783655E-2 0.667331  1.016E-4 7.66370 56324 298.90
298.92 10.000000 2.770897E-2 0.667309  1.016E-4 7.66397 56393 298.90
298.93 10.000000 2.780907E-2 0.667352  1.016E-4 7.66344 56461 298.90
298.92 10.000000 2.787248E-2 0.667353  1.016E-4 7.66302 56530 298.90
298.93 10.000000 2.788432E-2 0.667344  1.016E-4 7.66323 56598 298.90
298.93 10.000000 2.775687E-2 0.667323  1.017E-4 7.66412 56667 298.90
298.94 10.000000 2.781042E-2 0.667337  1.017E-4 7.66329 56735 298.95
298.93 10.000000 2.782227E-2 0.667370  1.016E-4 7.66309 56804 298.90
298.92 10.000000 2.785117E-2 0.667374  1.017E-4 7.66376 56872 298.90
298.92 10.000000 2.785490E-2 0.667364  1.016E-4 7.66354 56941 298.90
298.92 10.000000 2.781465E-2 0.667358  1.017E-4 7.66402 57009 298.90
298.91 10.000000 2.775300E-2 0.667331  1.016E-4 7.66390 57078 298.90
298.91 10.000000 2.779530E-2 0.667332  1.016E-4 7.66302 57146 298.90
298.91 10.000000 2.785912E-2 0.667390  1.016E-4 7.66336 57215 298.90
298.91 10.000000 2.789742E-2 0.667424  1.016E-4 7.66311 57283 298.90
298.96 10.000000 2.791039E-2 0.667412  1.015E-4 7.66309 57352 298.90
298.95 10.000000 2.790301E-2 0.667411  1.017E-4 7.66280 57420 298.90
298.95 10.000000 2.787915E-2 0.667405  1.016E-4 7.66328 57489 298.90
298.94 10.000000 2.784720E-2 0.667402  1.017E-4 7.66288 57557 298.90
298.94 10.000000 2.790836E-2 0.667409  1.016E-4 7.66302 57626 298.90
298.94 10.000000 2.797118E-2 0.667464  1.016E-4 7.66311 57694 298.90
298.94 10.000000 2.797648E-2 0.667470  1.016E-4 7.66346 57763 298.90
298.94 10.000000 2.794431E-2 0.667458  1.016E-4 7.66290 57831 298.90
298.94 10.000000 2.784966E-2 0.667429  1.016E-4 7.66283 57900 298.90
298.93 10.000000 2.802193E-2 0.667533  1.016E-4 7.66329 57968 298.90
298.91 10.000000 2.787870E-2 0.667451  1.017E-4 7.66304 58037 298.90
298.91 10.000000 2.795969E-2 0.667482  1.015E-4 7.66328 58105 298.90
298.92 10.000000 2.810075E-2 0.667454  1.016E-4 7.66423 58174 298.90
298.92 10.000000 2.809943E-2 0.667473  1.016E-4 7.66422 58242 298.90
298.93 10.000000 2.802486E-2 0.667456  1.017E-4 7.66385 58311 298.90
298.94 10.000000 2.796406E-2 0.667444  1.016E-4 7.66327 58379 298.90
298.91 10.000000 2.797113E-2 0.667471  1.016E-4 7.66337 58448 298.90
298.94 10.000000 2.796103E-2 0.667401  1.016E-4 7.66346 58516 298.90
298.95 10.000000 2.800532E-2 0.667472  1.015E-4 7.66316 58585 298.90
298.93 10.000000 2.794093E-2 0.667467  1.016E-4 7.66362 58653 298.90
298.93 10.000000 2.793456E-2 0.667535  1.016E-4 7.66309 58722 298.90
298.90 10.000000 2.782762E-2 0.667488  1.016E-4 7.66309 58790 298.90
298.88 10.000000 2.790354E-2 0.667445  1.016E-4 7.66377 58859 298.90
298.89 10.000000 2.793988E-2 0.667473  1.017E-4 7.66307 58927 298.90
298.89 10.000000 2.788100E-2 0.667404  1.017E-4 7.66308 58996 298.90
298.90 10.000000 2.794058E-2 0.667409  1.016E-4 7.66389 59064 298.90
298.91 10.000000 2.786936E-2 0.667403  1.016E-4 7.66329 59133 298.90
298.91 10.000000 2.781924E-2 0.667401  1.016E-4 7.66312 59201 298.90
298.89 10.000000 2.803077E-2 0.667382  1.016E-4 7.66331 59270 298.90
298.88 10.000000 2.793717E-2 0.667333  1.016E-4 7.66374 59338 298.90
298.89 10.000000 2.776164E-2 0.667419  1.017E-4 7.66340 59407 298.90
298.88 10.000000 2.786784E-2 0.667390  1.016E-4 7.66407 59475 298.90
298.88 10.000000 2.785695E-2 0.667376  1.016E-4 7.66347 59544 298.90
298.88 10.000000 2.792200E-2 0.667418  1.016E-4 7.66323 59612 298.90
298.88 10.000000 2.799481E-2 0.667448  1.016E-4 7.66295 59681 298.90
298.87 10.000000 2.786012E-2 0.667426  1.016E-4 7.66329 59749 298.90
298.90 10.000000 2.792013E-2 0.667434  1.015E-4 7.66344 59818 298.90
298.87 10.000000 2.796985E-2 0.667453  1.016E-4 7.66303 59886 298.90
298.90 10.000000 2.795006E-2 0.667474  1.016E-4 7.66315 59955 298.90
298.90 10.000000 2.792379E-2 0.667468  1.016E-4 7.66333 60023 298.90
298.94 10.000000 2.795015E-2 0.667478  1.016E-4 7.66366 60092 298.90
298.93 10.000000 2.789839E-2 0.667447  1.017E-4 7.66326 60160 298.90
298.90 10.000000 2.789498E-2 0.667462  1.015E-4 7.66233 60229 298.90
298.93 10.000000 2.794364E-2 0.667453  1.016E-4 7.66314 60297 298.90
298.94 10.000000 2.797563E-2 0.667507  1.016E-4 7.66292 60366 298.90
298.92 10.000000 2.795115E-2 0.667488  1.016E-4 7.66340 60434 298.90
298.91 10.000000 2.797370E-2 0.667486  1.016E-4 7.66348 60503 298.90
298.89 10.000000 2.795361E-2 0.667466  1.017E-4 7.66283 60571 298.90
298.87 10.000000 2.789651E-2 0.667447  1.016E-4 7.66284 60640 298.90
298.87 10.000000 2.790772E-2 0.667443  1.016E-4 7.66350 60708 298.90
298.87 10.000000 2.790805E-2 0.667460  1.016E-4 7.66305 60777 298.90
298.91 10.000000 2.788300E-2 0.667439  1.016E-4 7.66374 60845 298.90
298.87 10.000000 2.790784E-2 0.667446  1.017E-4 7.66345 60914 298.90
298.86 10.000000 2.789017E-2 0.667415  1.016E-4 7.66297 60982 298.90
298.87 10.000000 2.789420E-2 0.667434  1.016E-4 7.66316 61051 298.90
298.91 10.000000 2.793768E-2 0.667444  1.016E-4 7.66269 61119 298.90
298.87 10.000000 2.792798E-2 0.667455  1.017E-4 7.66309 61188 298.90
298.87 10.000000 2.786587E-2 0.667449  1.016E-4 7.66304 61256 298.85
298.87 10.000000 2.791879E-2 0.667524  1.017E-4 7.66340 61325 298.85
298.87 10.000000 2.775274E-2 0.667425  1.016E-4 7.66366 61393 298.90
298.87 10.000000 2.791340E-2 0.667430  1.016E-4 7.66301 61462 298.90
298.88 10.000000 2.786173E-2 0.667415  1.016E-4 7.66308 61530 298.90
298.88 10.000000 2.787741E-2 0.667421  1.016E-4 7.66351 61599 298.90
298.88 10.000000 2.786723E-2 0.667434  1.017E-4 7.66284 61667 298.90
298.88 10.000000 2.786038E-2 0.667421  1.017E-4 7.66352 61736 298.85
298.88 10.000000 2.785064E-2 0.667431  1.016E-4 7.66250 61804 298.85
298.88 10.000000 2.787434E-2 0.667444  1.016E-4 7.66358 61873 298.85
298.87 10.000000 2.785799E-2 0.667431  1.016E-4 7.66272 61941 298.90
298.87 10.000000 2.790381E-2 0.667423  1.016E-4 7.66250 62010 298.90
298.87 10.000000 2.784958E-2 0.667442  1.017E-4 7.66298 62078 298.90
298.87 10.000000 2.782665E-2 0.667431  1.016E-4 7.66297 62147 298.90
298.86 10.000000 2.789069E-2 0.667419  1.016E-4 7.66297 62215 298.90
298.86 10.000000 2.772077E-2 0.667438  1.017E-4 7.66376 62284 298.90
298.86 10.000000 2.767753E-2 0.667411  1.016E-4 7.66332 62352 298.80
298.86 10.000000 2.760197E-2 0.667396  1.016E-4 7.66337 62421 298.90
298.86 10.000000 2.769743E-2 0.667335  1.016E-4 7.66303 62489 298.85
298.86 10.000000 2.764273E-2 0.667423  1.017E-4 7.66324 62558 298.85
298.86 10.000000 2.781696E-2 0.667466  1.017E-4 7.66291 62626 298.90
298.86 10.000000 2.784440E-2 0.667419  1.016E-4 7.66284 62695 298.90
298.87 10.000000 2.780887E-2 0.667412  1.016E-4 7.66277 62763 298.85
298.88 10.000000 2.784459E-2 0.667423  1.016E-4 7.66291 62832 298.90
298.88 10.000000 2.781440E-2 0.667475  1.016E-4 7.66239 62900 298.90
298.87 10.000000 2.783243E-2 0.667407  1.016E-4 7.66290 62969 298.90
298.88 10.000000 2.780827E-2 0.667427  1.016E-4 7.66287 63037 298.90
298.88 10.000000 2.780719E-2 0.667398  1.017E-4 7.66354 63106 298.90
298.88 10.000000 2.777251E-2 0.667413  1.017E-4 7.66341 63174 298.90
298.87 10.000000 2.794948E-2 0.667386  1.017E-4 7.66299 63243 298.90
298.87 10.000000 2.782886E-2 0.667403  1.016E-4 7.66356 63311 298.90
298.87 10.000000 2.771023E-2 0.667374  1.016E-4 7.66256 63380 298.90
298.87 10.000000 2.783684E-2 0.667321  1.016E-4 7.66296 63448 298.90
298.87 10.000000 2.771721E-2 0.667383  1.016E-4 7.66269 63517 298.90
298.86 10.000000 2.780391E-2 0.667410  1.016E-4 7.66276 63585 298.85
298.87 10.000000 2.776510E-2 0.667355  1.017E-4 7.66256 63654 298.90
298.87 10.000000 2.771496E-2 0.667386  1.017E-4 7.66286 63722 298.90
298.88 10.000000 2.773078E-2 0.667381  1.016E-4 7.66295 63791 298.90
298.88 10.000000 2.777587E-2 0.667374  1.016E-4 7.66240 63859 298.90
298.87 10.000000 2.785356E-2 0.667418  1.016E-4 7.66297 63928 298.90
298.87 10.000000 2.781915E-2 0.667442  1.016E-4 7.66226 63996 298.85
298.88 10.000000 2.776123E-2 0.667368  1.016E-4 7.66273 64065 298.90
298.87 10.000000 2.778748E-2 0.667324  1.017E-4 7.66252 64133 298.90
298.88 10.000000 2.776830E-2 0.667390  1.017E-4 7.66221 64202 298.90
298.87 10.000000 2.772156E-2 0.667335  1.017E-4 7.66341 64270 298.85
298.87 10.000000 2.769378E-2 0.667346  1.016E-4 7.66280 64339 298.85
298.88 10.000000 2.789318E-2 0.667347  1.017E-4 7.66296 64407 298.90
298.89 10.000000 2.784395E-2 0.667405  1.016E-4 7.66262 64476 298.90
298.88 10.000000 2.778987E-2 0.667426  1.017E-4 7.66216 64544 298.80
298.88 10.000000 2.773644E-2 0.667384  1.015E-4 7.66256 64613 298.85
298.88 10.000000 2.773981E-2 0.667342  1.016E-4 7.66183 64681 298.90
298.89 10.000000 2.769419E-2 0.667314  1.016E-4 7.66238 64750 298.90
298.86 10.000000 2.772193E-2 0.667396  1.017E-4 7.66208 64818 298.80
298.86 10.000000 2.776156E-2 0.667417  1.016E-4 7.66301 64887 298.80
298.88 10.000000 2.791366E-2 0.667463  1.016E-4 7.66241 64955 298.85
298.88 10.000000 2.771169E-2 0.667409  1.016E-4 7.66222 65024 298.85
298.88 10.000000 2.777181E-2 0.667393  1.016E-4 7.66285 65092 298.85
298.88 10.000000 2.775628E-2 0.667380  1.016E-4 7.66051 65161 298.80
298.87 10.000000 2.782372E-2 0.667436  1.016E-4 7.66144 65229 298.90
298.88 10.000000 2.781756E-2 0.667409  1.016E-4 7.66243 65298 298.85
298.87 10.000000 2.779796E-2 0.667433  1.016E-4 7.66245 65366 298.85
298.86 10.000000 2.782772E-2 0.667458  1.016E-4 7.66242 65435 298.85
298.86 10.000000 2.787144E-2 0.667453  1.016E-4 7.66174 65503 298.80
298.86 10.000000 2.777818E-2 0.667405  1.016E-4 7.66219 65572 298.85
298.85 10.000000 2.773735E-2 0.667368  1.017E-4 7.66249 65640 298.80
298.85 10.000000 2.773038E-2 0.667376  1.016E-4 7.66229 65709 298.85
298.85 10.000000 2.774965E-2 0.667390  1.017E-4 7.66272 65777 298.80
298.84 10.000000 2.774203E-2 0.667366  1.016E-4 7.66218 65846 298.80
298.83 10.000000 2.764451E-2 0.667351  1.016E-4 7.66208 65914 298.80
298.82 10.000000 2.775455E-2 0.667381  1.017E-4 7.66221 65983 298.80
298.88 10.000000 2.773636E-2 0.667362  1.017E-4 7.66244 66051 298.80
298.84 10.000000 2.786803E-2 0.667357  1.017E-4 7.66116 66120 298.80
298.87 10.000000 2.759477E-2 0.667380  1.016E-4 7.66233 66188 298.80
298.86 10.000000 2.775117E-2 0.667306  1.016E-4 7.66252 66257 298.85
298.85 10.000000 2.773274E-2 0.667373  1.018E-4 7.66227 66325 298.80
298.84 10.000000 2.776594E-2 0.667430  1.017E-4 7.66239 66394 298.80
298.84 10.000000 2.784729E-2 0.667440  1.017E-4 7.66226 66462 298.80
298.84 10.000000 2.783596E-2 0.667459  1.016E-4 7.66229 66531 298.80
298.83 10.000000 2.780914E-2 0.667448  1.016E-4 7.66202 66599 298.80
298.82 10.000000 2.784566E-2 0.667460  1.016E-4 7.66143 66668 298.80
298.83 10.000000 2.789501E-2 0.667392  1.017E-4 7.66165 66736 298.80
298.83 10.000000 2.783888E-2 0.667428  1.017E-4 7.66194 66805 298.80
298.82 10.000000 2.781775E-2 0.667412  1.016E-4 7.66168 66873 298.80
298.84 10.000000 2.773564E-2 0.667328  1.017E-4 7.66248 66942 298.80
298.86 10.000000 2.758731E-2 0.667404  1.016E-4 7.66203 67010 298.80
298.86 10.000000 2.787646E-2 0.667375  1.016E-4 7.66245 67079 298.80
298.84 10.000000 2.790411E-2 0.667397  1.017E-4 7.66160 67147 298.80
298.82 10.000000 2.788863E-2 0.667473  1.016E-4 7.66158 67216 298.80
298.82 10.000000 2.798977E-2 0.667438  1.017E-4 7.66179 67284 298.80
298.81 10.000000 2.775859E-2 0.667451  1.017E-4 7.66204 67353 298.80
298.80 10.000000 2.791217E-2 0.667478  1.016E-4 7.66216 67421 298.80
298.81 10.000000 2.783350E-2 0.667464  1.017E-4 7.66179 67490 298.80
298.82 10.000000 2.782188E-2 0.667450  1.016E-4 7.66212 67558 298.80
298.82 10.000000 2.787993E-2 0.667461  1.016E-4 7.66199 67627 298.80
298.82 10.000000 2.790616E-2 0.667501  1.016E-4 7.66223 67695 298.80
298.82 10.000000 2.786488E-2 0.667457  1.016E-4 7.66164 67764 298.80
