Nb
as received
Sample dimentions in mm: 0.7000 x 0.000 x 14.18
Photocell sensitivity 0.056 V/mm, Optic arm 328 mm
User: Iva
C 14 550 2.0 290 90 7.000  60 3.0E-1
29.11.2013, 11:51

T[K]   F[Hz]  Theta[rad]   Modulus  MaxStrain Center[mm] Time[s] TOven[K]
538.69 7.000840 2.513835E-2 0.608800  1.120E-4 8.04299 65 549.65
538.71 7.000840 2.513077E-2 0.609000  1.118E-4 8.04227 134 548.40
538.52 7.000840 2.513292E-2 0.608923  1.120E-4 8.04361 203 546.55
538.14 7.000840 2.518935E-2 0.608995  1.119E-4 8.04252 272 544.30
537.58 7.000840 2.522602E-2 0.608981  1.120E-4 8.04429 341 542.00
536.81 7.000840 2.528596E-2 0.609125  1.118E-4 8.04271 409 539.70
535.81 7.000840 2.536796E-2 0.609160  1.118E-4 8.04326 478 537.40
534.60 7.000840 2.544150E-2 0.609536  1.120E-4 8.04119 547 535.15
533.32 7.000840 2.553958E-2 0.609779  1.118E-4 8.03946 616 532.90
531.91 7.000840 2.562325E-2 0.609984  1.117E-4 8.03868 685 530.55
530.37 7.000840 2.575074E-2 0.610176  1.117E-4 8.03593 753 528.25
528.77 7.000840 2.589300E-2 0.610076  1.116E-4 8.03563 822 525.90
527.08 7.000840 2.606319E-2 0.610348  1.118E-4 8.03411 891 523.60
525.31 7.000840 2.623276E-2 0.610720  1.116E-4 8.03172 960 521.30
523.51 7.000840 2.644033E-2 0.610922  1.116E-4 8.02967 1029 519.00
521.69 7.000840 2.667117E-2 0.611196  1.115E-4 8.02711 1097 516.85
519.81 7.000840 2.690907E-2 0.611874  1.115E-4 8.02385 1166 514.60
517.91 7.000840 2.717063E-2 0.612344  1.113E-4 8.02170 1235 512.25
515.96 7.000840 2.743315E-2 0.612845  1.113E-4 8.01787 1304 509.85
513.96 7.000840 2.771893E-2 0.613386  1.111E-4 8.01405 1373 507.45
511.90 7.000840 2.804564E-2 0.613882  1.110E-4 8.01103 1441 505.05
509.81 7.000840 2.840071E-2 0.614511  1.110E-4 8.00630 1510 502.65
507.67 7.000840 2.879107E-2 0.615076  1.108E-4 8.00354 1579 500.30
505.54 7.000840 2.918636E-2 0.615632  1.107E-4 7.99936 1648 498.10
503.39 7.000840 2.961182E-2 0.616211  1.106E-4 7.99743 1717 495.80
501.23 7.000840 3.006867E-2 0.617004  1.105E-4 7.99295 1785 493.60
499.12 7.000840 3.055977E-2 0.617753  1.104E-4 7.98829 1854 491.30
496.97 7.000840 3.110085E-2 0.618534  1.102E-4 7.98373 1923 489.10
494.87 7.000840 3.165205E-2 0.619260  1.101E-4 7.97948 1992 486.75
492.71 7.000840 3.223772E-2 0.620062  1.100E-4 7.97576 2061 484.50
490.58 7.000840 3.284264E-2 0.620928  1.098E-4 7.97118 2129 482.15
488.43 7.000840 3.344444E-2 0.621739  1.097E-4 7.96723 2198 479.80
486.27 7.000840 3.409769E-2 0.622404  1.095E-4 7.96288 2267 477.45
484.13 7.000840 3.477194E-2 0.623279  1.093E-4 7.95888 2336 475.20
481.97 7.000840 3.549369E-2 0.624031  1.092E-4 7.95589 2405 472.90
479.84 7.000840 3.625862E-2 0.624884  1.090E-4 7.95265 2473 470.60
477.72 7.000840 3.703036E-2 0.626005  1.089E-4 7.94973 2542 468.30
475.61 7.000840 3.777370E-2 0.627253  1.087E-4 7.94463 2611 466.10
473.51 7.000840 3.849198E-2 0.628598  1.084E-4 7.94053 2680 463.80
471.41 7.000840 3.916337E-2 0.629850  1.081E-4 7.93732 2748 461.55
469.31 7.000840 3.978305E-2 0.631102  1.080E-4 7.93379 2817 459.35
467.21 7.000840 4.033642E-2 0.632477  1.077E-4 7.93068 2886 457.15
465.11 7.000840 4.079030E-2 0.633904  1.075E-4 7.92714 2955 454.85
462.99 7.000840 4.115378E-2 0.635443  1.072E-4 7.92350 3023 452.45
460.88 7.000840 4.136963E-2 0.637078  1.070E-4 7.91879 3092 450.10
458.80 7.000840 4.143872E-2 0.638659  1.066E-4 7.91552 3161 447.75
456.74 7.000840 4.131900E-2 0.640289  1.064E-4 7.91272 3229 445.40
454.62 7.000840 4.101939E-2 0.641935  1.061E-4 7.90836 3298 443.10
452.57 7.000840 4.055493E-2 0.643568  1.059E-4 7.90528 3367 440.85
450.51 7.000840 3.992108E-2 0.645175  1.056E-4 7.90149 3435 438.60
448.38 7.000840 3.916687E-2 0.646712  1.054E-4 7.89765 3504 436.40
446.36 7.000840 3.826497E-2 0.648133  1.050E-4 7.89365 3573 434.10
444.27 7.000840 3.730506E-2 0.649505  1.048E-4 7.89074 3642 431.85
442.22 7.000840 3.629169E-2 0.650776  1.046E-4 7.88620 3710 429.50
440.22 7.000840 3.526632E-2 0.651973  1.046E-4 7.88309 3779 427.20
438.18 7.000840 3.427417E-2 0.653118  1.044E-4 7.87925 3848 424.90
436.15 7.000840 3.328003E-2 0.654150  1.041E-4 7.87654 3916 422.65
434.16 7.000840 3.226388E-2 0.655040  1.040E-4 7.87317 3985 420.35
432.18 7.000840 3.134183E-2 0.655856  1.039E-4 7.86928 4054 418.05
430.17 7.000840 3.046780E-2 0.656603  1.037E-4 7.86555 4122 415.70
428.16 7.000840 2.967750E-2 0.657341  1.036E-4 7.86205 4191 413.40
426.17 7.000840 2.890483E-2 0.657966  1.035E-4 7.85841 4260 411.10
424.18 7.000840 2.819126E-2 0.658558  1.035E-4 7.85543 4329 408.90
422.22 7.000840 2.755225E-2 0.659047  1.034E-4 7.85297 4397 406.65
420.26 7.000840 2.691902E-2 0.659348  1.032E-4 7.85106 4466 404.55
418.29 7.000840 2.635148E-2 0.659711  1.033E-4 7.84888 4535 402.20
416.33 7.000840 2.583605E-2 0.660154  1.030E-4 7.84633 4603 399.90
414.40 7.000840 2.540518E-2 0.660568  1.031E-4 7.84288 4672 397.70
412.47 7.000840 2.502033E-2 0.661025  1.030E-4 7.84025 4741 395.40
410.56 7.000840 2.460903E-2 0.661456  1.030E-4 7.83673 4809 393.20
408.64 7.000840 2.421220E-2 0.661783  1.030E-4 7.83345 4878 390.90
406.74 7.000840 2.393380E-2 0.662088  1.029E-4 7.83172 4947 388.65
404.83 7.000840 2.369093E-2 0.662380  1.028E-4 7.82996 5016 386.45
402.94 7.000840 2.344316E-2 0.662651  1.028E-4 7.82766 5084 384.25
401.06 7.000840 2.321484E-2 0.663089  1.028E-4 7.82426 5153 382.15
399.19 7.000840 2.299825E-2 0.663436  1.027E-4 7.82192 5222 380.10
397.34 7.000840 2.283436E-2 0.663693  1.026E-4 7.81913 5290 378.15
395.50 7.000840 2.265478E-2 0.663941  1.026E-4 7.81630 5359 376.30
393.70 7.000840 2.247062E-2 0.664200  1.026E-4 7.81400 5428 374.45
391.92 7.000840 2.237892E-2 0.664577  1.025E-4 7.81205 5496 372.75
390.17 7.000840 2.218305E-2 0.664848  1.024E-4 7.80962 5565 371.05
388.45 7.000840 2.204455E-2 0.665136  1.024E-4 7.80682 5634 369.40
386.77 7.000840 2.198826E-2 0.665537  1.024E-4 7.80367 5703 367.90
385.11 7.000840 2.187873E-2 0.665827  1.023E-4 7.80110 5771 366.40
383.48 7.000840 2.185630E-2 0.666272  1.021E-4 7.79863 5840 364.95
381.88 7.000840 2.182973E-2 0.666541  1.022E-4 7.79709 5909 363.60
380.32 7.000840 2.177939E-2 0.666914  1.021E-4 7.79466 5977 362.35
378.79 7.000840 2.169156E-2 0.667242  1.020E-4 7.79214 6046 361.05
377.29 7.000840 2.160489E-2 0.667592  1.019E-4 7.78881 6115 359.80
375.82 7.000840 2.156101E-2 0.667881  1.020E-4 7.78644 6183 358.60
374.38 7.000840 2.150897E-2 0.668145  1.019E-4 7.78470 6252 357.45
372.98 7.000840 2.143582E-2 0.668258  1.019E-4 7.78347 6321 356.30
371.62 7.000840 2.138830E-2 0.668452  1.019E-4 7.78210 6390 355.20
370.29 7.000840 2.133447E-2 0.668625  1.019E-4 7.77919 6458 354.10
368.97 7.000840 2.130078E-2 0.668832  1.018E-4 7.77808 6527 353.00
367.70 7.000840 2.130219E-2 0.669104  1.017E-4 7.77615 6596 352.00
366.45 7.000840 2.126903E-2 0.669334  1.018E-4 7.77420 6664 350.95
365.22 7.000840 2.122487E-2 0.669566  1.017E-4 7.77219 6733 349.90
364.02 7.000840 2.117694E-2 0.669811  1.016E-4 7.76998 6802 348.90
362.84 7.000840 2.114823E-2 0.669997  1.016E-4 7.76869 6870 347.90
361.72 7.000840 2.110115E-2 0.670188  1.016E-4 7.76779 6939 347.00
360.60 7.000840 2.107792E-2 0.670404  1.015E-4 7.76579 7008 346.10
359.50 7.000840 2.105383E-2 0.670623  1.015E-4 7.76405 7077 345.15
358.43 7.000840 2.104347E-2 0.670838  1.015E-4 7.76258 7145 344.30
357.38 7.000840 2.100670E-2 0.671035  1.014E-4 7.76072 7214 343.45
356.35 7.000840 2.098412E-2 0.671221  1.014E-4 7.75862 7283 342.70
355.34 7.000840 2.096062E-2 0.671389  1.015E-4 7.75722 7351 341.95
354.35 7.000840 2.094253E-2 0.671586  1.014E-4 7.75639 7420 341.15
353.40 7.000840 2.092402E-2 0.671787  1.013E-4 7.75401 7489 340.40
352.44 7.000840 2.091231E-2 0.671961  1.014E-4 7.75355 7557 339.65
351.51 7.000840 2.089635E-2 0.672151  1.013E-4 7.75088 7626 338.90
350.62 7.000840 2.089564E-2 0.672342  1.013E-4 7.74954 7695 338.25
349.74 7.000840 2.088720E-2 0.672539  1.013E-4 7.74836 7764 337.50
348.87 7.000840 2.085324E-2 0.672712  1.012E-4 7.74678 7832 336.80
348.01 7.000840 2.084523E-2 0.672874  1.012E-4 7.74587 7901 336.10
347.18 7.000840 2.081809E-2 0.673007  1.011E-4 7.74453 7970 335.50
346.37 7.000840 2.081156E-2 0.673138  1.012E-4 7.74397 8038 334.85
345.57 7.000840 2.077242E-2 0.673277  1.012E-4 7.74201 8107 334.20
344.78 7.000840 2.077249E-2 0.673424  1.012E-4 7.74038 8176 333.55
344.01 7.000840 2.074461E-2 0.673549  1.011E-4 7.74003 8244 332.95
343.25 7.000840 2.071836E-2 0.673666  1.011E-4 7.73865 8313 332.35
342.54 7.000840 2.071697E-2 0.673798  1.011E-4 7.73744 8382 331.75
341.81 7.000840 2.070005E-2 0.673933  1.011E-4 7.73588 8451 331.15
341.05 7.000840 2.069938E-2 0.674084  1.010E-4 7.73477 8519 330.55
340.41 7.000840 2.068974E-2 0.674204  1.010E-4 7.73376 8588 329.95
339.72 7.000840 2.068859E-2 0.674335  1.010E-4 7.73310 8657 329.45
339.02 7.000840 2.066820E-2 0.674485  1.010E-4 7.73129 8725 328.90
338.39 7.000840 2.065322E-2 0.674632  1.010E-4 7.73057 8794 328.35
337.73 7.000840 2.066179E-2 0.674783  1.009E-4 7.72879 8863 327.90
337.09 7.000840 2.063561E-2 0.674938  1.009E-4 7.72814 8931 327.35
336.47 7.000840 2.063667E-2 0.675082  1.008E-4 7.72685 9000 326.85
335.85 7.000840 2.061612E-2 0.675212  1.009E-4 7.72562 9069 326.40
335.25 7.000840 2.061180E-2 0.675313  1.009E-4 7.72546 9138 325.90
334.66 7.000840 2.060816E-2 0.675417  1.008E-4 7.72486 9206 325.50
334.05 7.000840 2.060581E-2 0.675525  1.008E-4 7.72396 9275 325.10
333.52 7.000840 2.058424E-2 0.675657  1.008E-4 7.72288 9344 324.60
332.96 7.000840 2.056354E-2 0.675774  1.008E-4 7.72177 9412 324.25
332.40 7.000840 2.056297E-2 0.675889  1.007E-4 7.72154 9481 323.80
331.86 7.000840 2.055945E-2 0.676001  1.007E-4 7.72087 9550 323.40
331.33 7.000840 2.054428E-2 0.676118  1.007E-4 7.72089 9618 323.00
330.82 7.000840 2.052924E-2 0.676216  1.007E-4 7.71945 9687 322.60
330.30 7.000840 2.053620E-2 0.676326  1.007E-4 7.71863 9756 322.25
329.83 7.000840 2.052302E-2 0.676434  1.007E-4 7.71863 9825 321.90
329.30 7.000840 2.051088E-2 0.676547  1.007E-4 7.71746 9893 321.45
328.84 7.000840 2.050248E-2 0.676631  1.007E-4 7.71729 9962 321.05
328.35 7.000840 2.048302E-2 0.676713  1.006E-4 7.71618 10031 320.70
327.89 7.000840 2.046263E-2 0.676793  1.008E-4 7.71551 10099 320.40
327.43 7.000840 2.039228E-2 0.676837  1.006E-4 7.71360 10168 320.05
326.98 7.000840 2.035708E-2 0.676900  1.006E-4 7.71299 10237 319.65
326.54 7.000840 2.033556E-2 0.676976  1.006E-4 7.71292 10305 319.35
326.10 7.000840 2.033139E-2 0.677049  1.006E-4 7.71223 10374 318.95
325.62 7.000840 2.031243E-2 0.677125  1.006E-4 7.71126 10443 318.65
325.26 7.000840 2.030771E-2 0.677195  1.006E-4 7.71106 10512 318.35
324.84 7.000840 2.029172E-2 0.677284  1.006E-4 7.71018 10580 317.95
324.43 7.000840 2.025315E-2 0.677361  1.006E-4 7.70947 10649 317.65
324.03 7.000840 2.023657E-2 0.677446  1.005E-4 7.70832 10718 317.35
323.63 7.000840 2.021455E-2 0.677504  1.005E-4 7.70834 10786 317.05
323.24 7.000840 2.021966E-2 0.677584  1.005E-4 7.70807 10855 316.75
322.85 7.000840 2.018832E-2 0.677641  1.005E-4 7.70668 10924 316.50
322.47 7.000840 2.015959E-2 0.677706  1.005E-4 7.70698 10992 316.20
322.10 7.000840 2.012959E-2 0.677764  1.005E-4 7.70609 11061 315.90
321.73 7.000840 2.011620E-2 0.677818  1.005E-4 7.70485 11130 315.65
321.38 7.000840 2.010307E-2 0.677878  1.005E-4 7.70392 11199 315.40
321.03 7.000840 2.009960E-2 0.677954  1.005E-4 7.70404 11267 315.10
320.69 7.000840 2.006850E-2 0.678028  1.005E-4 7.70388 11336 314.85
320.34 7.000840 2.005657E-2 0.678084  1.004E-4 7.70328 11405 314.60
320.00 7.000840 2.006143E-2 0.678143  1.004E-4 7.70313 11473 314.35
319.67 7.000840 2.005117E-2 0.678200  1.005E-4 7.70290 11542 314.10
319.35 7.000840 2.002312E-2 0.678226  1.005E-4 7.70242 11611 313.90
319.03 7.000840 2.000510E-2 0.678274  1.005E-4 7.70240 11679 313.60
318.71 7.000840 1.998637E-2 0.678290  1.005E-4 7.70081 11748 313.40
318.40 7.000840 1.997647E-2 0.678333  1.005E-4 7.70158 11817 313.20
318.10 7.000840 1.997123E-2 0.678359  1.005E-4 7.70186 11885 313.00
317.80 7.000840 1.995360E-2 0.678406  1.005E-4 7.70043 11954 312.70
317.51 7.000840 1.995408E-2 0.678434  1.005E-4 7.70024 12023 312.50
317.22 7.000840 1.992817E-2 0.678475  1.005E-4 7.69999 12091 312.30
316.94 7.000840 1.993149E-2 0.678515  1.004E-4 7.70070 12160 312.10
316.67 7.000840 1.991545E-2 0.678575  1.004E-4 7.69973 12229 311.85
316.40 7.000840 1.994147E-2 0.678627  1.004E-4 7.70035 12297 311.70
316.12 7.000840 1.990045E-2 0.678648  1.003E-4 7.70010 12366 311.50
315.88 7.000840 1.991292E-2 0.678703  1.004E-4 7.69946 12435 311.30
315.63 7.000840 1.989999E-2 0.678759  1.004E-4 7.69833 12503 311.10
315.37 7.000840 1.989962E-2 0.678808  1.003E-4 7.69824 12572 310.90
315.12 7.000840 1.989561E-2 0.678860  1.004E-4 7.69850 12641 310.70
314.86 7.000840 1.987292E-2 0.678885  1.004E-4 7.69870 12709 310.55
314.62 7.000840 1.985634E-2 0.678882  1.004E-4 7.69817 12778 310.30
314.37 7.000840 1.983664E-2 0.678876  1.004E-4 7.69708 12847 310.15
314.13 7.000840 1.981895E-2 0.678903  1.005E-4 7.69701 12915 310.05
313.89 7.000840 1.982076E-2 0.678957  1.004E-4 7.69719 12984 309.85
313.66 7.000840 1.982669E-2 0.678992  1.004E-4 7.69632 13053 309.70
313.44 7.000840 1.980689E-2 0.679037  1.005E-4 7.69644 13121 309.50
313.23 7.000840 1.980880E-2 0.679079  1.003E-4 7.69651 13190 309.35
313.01 7.000840 1.983253E-2 0.679147  1.003E-4 7.69664 13259 309.20
