Nb
as received
Sample dimentions in mm: 0.7000 x 0.000 x 14.18
Photocell sensitivity 0.056 V/mm, Optic arm 328 mm
User: Iva
H 1 297 2.0 550 15 1.000  20 3.0E-1
20.11.2013, 12:18

T[K]   F[Hz]  Theta[rad]   Modulus  MaxStrain Center[mm] Time[s] TOven[K]
336.84 1.000576 5.105124E-3 0.670847  1.093E-5 8.54899 3823 359.30
377.70 1.000576 4.845365E-3 0.671011  1.026E-4 8.28218 3853 422.30
378.71 1.000576 4.909689E-3 0.670929  1.027E-4 8.26775 3882 423.30
379.79 1.000576 4.856097E-3 0.670750  1.025E-4 8.25316 3912 424.35
380.81 1.000576 4.752720E-3 0.670620  1.022E-4 8.25790 3942 425.35
381.87 1.000576 5.169458E-3 0.670648  1.026E-4 8.25444 3972 426.40
382.93 1.000576 4.969521E-3 0.670382  1.015E-4 8.24986 4002 427.40
384.03 1.000576 4.932084E-3 0.670140  1.032E-4 8.24468 4031 428.40
385.07 1.000576 5.160269E-3 0.670038  1.022E-4 8.24220 4061 429.40
386.15 1.000576 5.373867E-3 0.669762  1.029E-4 8.23504 4091 430.40
387.24 1.000576 5.096790E-3 0.669584  1.026E-4 8.23146 4121 431.35
388.33 1.000576 5.193070E-3 0.669560  1.041E-4 8.21963 4151 432.35
389.42 1.000576 5.267229E-3 0.669255  1.028E-4 8.21272 4180 433.35
390.54 1.000576 5.587982E-3 0.669015  1.028E-4 8.21498 4210 434.35
391.64 1.000576 5.309424E-3 0.669009  1.027E-4 8.21674 4240 435.35
392.76 1.000576 5.385261E-3 0.668877  1.025E-4 8.20971 4270 436.35
393.83 1.000576 5.582310E-3 0.668209  1.023E-4 8.21236 4300 437.35
394.92 1.000576 5.624587E-3 0.667987  1.033E-4 8.19401 4329 438.35
396.01 1.000576 5.817609E-3 0.667963  1.039E-4 8.19933 4359 439.35
397.10 1.000576 6.105050E-3 0.667810  1.025E-4 8.20127 4389 440.30
398.18 1.000576 5.875131E-3 0.667676  1.038E-4 8.20188 4419 441.25
399.26 1.000576 6.015533E-3 0.667311  1.030E-4 8.19078 4449 442.15
400.32 1.000576 6.309889E-3 0.667218  1.032E-4 8.18473 4478 443.00
401.40 1.000576 6.466425E-3 0.666658  1.029E-4 8.18812 4508 443.90
402.48 1.000576 6.712502E-3 0.666375  1.019E-4 8.18968 4538 444.80
403.58 1.000576 6.859453E-3 0.666070  1.032E-4 8.18482 4567 445.75
404.67 1.000576 6.975548E-3 0.665823  1.029E-4 8.17471 4597 446.65
405.74 1.000576 7.157166E-3 0.665825  1.033E-4 8.17993 4627 447.65
406.81 1.000576 7.350485E-3 0.665212  1.031E-4 8.16407 4656 448.65
407.89 1.000576 7.631973E-3 0.665045  1.039E-4 8.16800 4686 449.70
408.97 1.000576 7.959329E-3 0.664845  1.043E-4 8.16987 4716 450.65
410.04 1.000576 8.115753E-3 0.664386  1.033E-4 8.16223 4746 451.65
411.13 1.000576 8.384583E-3 0.664215  1.042E-4 8.15726 4775 452.75
412.21 1.000576 8.705242E-3 0.663861  1.035E-4 8.15597 4805 453.75
413.29 1.000576 8.864770E-3 0.663446  1.040E-4 8.15434 4835 454.75
414.39 1.000576 9.275381E-3 0.663019  1.039E-4 8.14788 4864 455.75
415.48 1.000576 9.603751E-3 0.662651  1.041E-4 8.15649 4894 456.75
416.55 1.000576 9.852699E-3 0.662375  1.031E-4 8.15049 4924 457.75
417.64 1.000576 1.036313E-2 0.661886  1.041E-4 8.15666 4953 458.75
418.74 1.000576 1.069537E-2 0.661802  1.034E-4 8.15544 4983 459.70
419.83 1.000576 1.100508E-2 0.661460  1.032E-4 8.14162 5013 460.65
420.92 1.000576 1.154919E-2 0.661332  1.047E-4 8.13972 5042 461.70
422.01 1.000576 1.204643E-2 0.660701  1.039E-4 8.13872 5072 462.65
423.11 1.000576 1.233952E-2 0.660131  1.050E-4 8.13611 5102 463.75
424.21 1.000576 1.259692E-2 0.659661  1.031E-4 8.14749 5132 464.70
425.32 1.000576 1.311871E-2 0.659247  1.019E-4 8.14613 5161 465.65
426.42 1.000576 1.343069E-2 0.658882  1.041E-4 8.13752 5191 466.65
427.54 1.000576 1.396823E-2 0.658289  1.039E-4 8.13541 5221 467.65
428.66 1.000576 1.418971E-2 0.657777  1.032E-4 8.12433 5250 468.65
429.75 1.000576 1.479655E-2 0.657370  1.042E-4 8.13363 5280 469.65
430.83 1.000576 1.506568E-2 0.656725  1.046E-4 8.12077 5310 470.65
431.92 1.000576 1.553477E-2 0.656041  1.053E-4 8.13229 5339 471.65
433.03 1.000576 1.599063E-2 0.655459  1.050E-4 8.12826 5369 472.65
434.14 1.000576 1.635482E-2 0.654848  1.031E-4 8.13114 5399 473.60
435.25 1.000576 1.689201E-2 0.654346  1.057E-4 8.12919 5429 474.60
436.36 1.000576 1.697007E-2 0.653594  1.047E-4 8.12045 5458 475.55
437.46 1.000576 1.726620E-2 0.652934  1.050E-4 8.10675 5488 476.55
438.56 1.000576 1.776383E-2 0.652304  1.053E-4 8.12104 5518 477.55
439.64 1.000576 1.820673E-2 0.651585  1.056E-4 8.12487 5547 478.55
440.75 1.000576 1.845041E-2 0.650851  1.058E-4 8.12175 5577 479.55
441.87 1.000576 1.861690E-2 0.650083  1.073E-4 8.13885 5607 480.55
442.97 1.000576 1.895368E-2 0.649213  1.064E-4 8.12870 5636 481.55
444.02 1.000576 1.889908E-2 0.648278  1.069E-4 8.12170 5666 482.50
445.19 1.000576 1.918151E-2 0.647604  1.065E-4 8.12038 5696 483.55
446.30 1.000576 1.922233E-2 0.646859  1.059E-4 8.11673 5726 484.55
447.43 1.000576 1.929056E-2 0.646085  1.068E-4 8.12502 5755 485.60
448.53 1.000576 1.949382E-2 0.645364  1.076E-4 8.11764 5785 486.65
449.64 1.000576 1.969296E-2 0.644574  1.064E-4 8.11272 5815 487.65
450.76 1.000576 1.956709E-2 0.643869  1.078E-4 8.12323 5844 488.65
451.87 1.000576 1.957719E-2 0.643069  1.067E-4 8.10916 5874 489.65
453.00 1.000576 1.943123E-2 0.642471  1.075E-4 8.11237 5904 490.65
454.10 1.000576 1.960743E-2 0.641585  1.064E-4 8.10696 5933 491.65
455.19 1.000576 1.955834E-2 0.640741  1.085E-4 8.12285 5963 492.60
456.33 1.000576 1.943487E-2 0.640053  1.051E-4 8.10306 5993 493.65
457.46 1.000576 1.938127E-2 0.639258  1.074E-4 8.10845 6023 494.60
458.59 1.000576 1.921785E-2 0.638503  1.094E-4 8.12435 6052 495.55
459.74 1.000576 1.901621E-2 0.637628  1.054E-4 8.09216 6082 496.55
460.88 1.000576 1.902024E-2 0.636802  1.077E-4 8.11030 6112 497.50
462.01 1.000576 1.854497E-2 0.636095  1.072E-4 8.10764 6141 498.50
463.12 1.000576 1.836487E-2 0.635370  1.085E-4 8.11272 6171 499.55
464.30 1.000576 1.803364E-2 0.634709  1.079E-4 8.10679 6201 500.55
465.36 1.000576 1.809283E-2 0.633902  1.075E-4 8.10231 6230 501.55
466.56 1.000576 1.749718E-2 0.633464  1.116E-4 8.12672 6260 502.55
467.66 1.000576 1.724732E-2 0.632636  1.085E-4 8.10594 6290 503.45
468.80 1.000576 1.683612E-2 0.632042  1.102E-4 8.10994 6319 504.45
469.88 1.000576 1.669399E-2 0.631507  1.072E-4 8.10201 6349 505.35
470.99 1.000576 1.597703E-2 0.630969  1.095E-4 8.11062 6379 506.35
472.11 1.000576 1.576704E-2 0.630367  1.090E-4 8.10945 6409 507.35
473.23 1.000576 1.532564E-2 0.629793  1.086E-4 8.10932 6438 508.35
474.35 1.000576 1.491025E-2 0.629314  1.102E-4 8.11457 6468 509.35
475.45 1.000576 1.485044E-2 0.628955  1.098E-4 8.11428 6498 510.25
476.55 1.000576 1.409669E-2 0.628401  1.090E-4 8.10898 6527 511.35
477.66 1.000576 1.367345E-2 0.628077  1.094E-4 8.11173 6557 512.25
478.76 1.000576 1.333613E-2 0.627532  1.096E-4 8.11417 6587 513.25
479.87 1.000576 1.302462E-2 0.627253  1.096E-4 8.11496 6616 514.20
480.96 1.000576 1.262742E-2 0.626847  1.098E-4 8.11531 6646 515.25
482.03 1.000576 1.209596E-2 0.626445  1.100E-4 8.11545 6676 516.20
483.16 1.000576 1.200265E-2 0.626156  1.099E-4 8.11541 6706 517.25
484.28 1.000576 1.153465E-2 0.625972  1.099E-4 8.11536 6735 518.25
485.35 1.000576 1.111946E-2 0.625567  1.100E-4 8.11715 6765 519.20
486.43 1.000576 1.097400E-2 0.625275  1.101E-4 8.11780 6795 520.25
487.53 1.000576 1.050540E-2 0.625058  1.101E-4 8.11921 6824 521.25
488.61 1.000576 1.036165E-2 0.624796  1.100E-4 8.12022 6854 522.20
489.68 1.000576 9.946085E-3 0.624409  1.102E-4 8.11923 6884 523.25
490.71 1.000576 9.852633E-3 0.624141  1.103E-4 8.12105 6913 524.15
491.81 1.000576 9.575606E-3 0.623873  1.101E-4 8.12378 6943 525.25
492.87 1.000576 9.437051E-3 0.623698  1.113E-4 8.12757 6973 526.15
493.94 1.000576 9.060946E-3 0.623294  1.110E-4 8.12853 7003 527.15
495.04 1.000576 8.908816E-3 0.623056  1.101E-4 8.11698 7032 528.10
496.10 1.000576 8.669147E-3 0.622693  1.101E-4 8.12135 7062 529.15
497.20 1.000576 8.335209E-3 0.622566  1.106E-4 8.12394 7092 530.05
498.30 1.000576 8.298350E-3 0.622438  1.104E-4 8.12449 7121 531.05
499.39 1.000576 8.093625E-3 0.622053  1.106E-4 8.12549 7151 532.05
500.47 1.000576 8.179186E-3 0.621983  1.106E-4 8.12374 7181 532.95
501.61 1.000576 8.124761E-3 0.621629  1.106E-4 8.12496 7210 534.00
502.69 1.000576 7.783462E-3 0.621526  1.106E-4 8.12693 7240 534.95
503.77 1.000576 7.721621E-3 0.621337  1.107E-4 8.12791 7270 535.95
504.85 1.000576 7.386879E-3 0.621320  1.107E-4 8.12793 7300 537.05
505.94 1.000576 7.408388E-3 0.621104  1.107E-4 8.12857 7329 538.05
507.03 1.000576 7.315371E-3 0.620913  1.108E-4 8.13026 7359 539.05
508.13 1.000576 7.324689E-3 0.620683  1.108E-4 8.13011 7389 540.05
509.25 1.000576 6.881187E-3 0.620480  1.107E-4 8.13159 7418 541.05
510.37 1.000576 6.929859E-3 0.620300  1.109E-4 8.13230 7448 542.05
511.46 1.000576 6.977581E-3 0.620199  1.108E-4 8.13395 7478 543.00
512.56 1.000576 6.873192E-3 0.619922  1.110E-4 8.13444 7507 543.95
513.63 1.000576 6.671035E-3 0.619791  1.110E-4 8.13490 7537 544.95
514.75 1.000576 6.637813E-3 0.619571  1.110E-4 8.13634 7567 545.90
515.80 1.000576 6.663285E-3 0.619511  1.110E-4 8.13691 7596 546.85
516.87 1.000576 6.599269E-3 0.619280  1.110E-4 8.13666 7626 547.90
517.96 1.000576 6.692881E-3 0.618982  1.112E-4 8.13704 7656 548.75
519.04 1.000576 6.539203E-3 0.618849  1.112E-4 8.13787 7686 549.35
520.10 1.000576 6.416002E-3 0.618743  1.111E-4 8.13802 7715 549.70
521.15 1.000576 6.319512E-3 0.618546  1.114E-4 8.13728 7745 549.95
522.16 1.000576 6.344434E-3 0.618488  1.110E-4 8.13707 7775 550.10
523.12 1.000576 6.247570E-3 0.618267  1.112E-4 8.13548 7804 550.15
524.02 1.000576 6.175505E-3 0.618147  1.113E-4 8.13633 7834 550.20
524.88 1.000576 6.343089E-3 0.618002  1.114E-4 8.13665 7864 550.30
525.72 1.000576 6.463327E-3 0.617864  1.112E-4 8.13512 7893 550.30
526.52 1.000576 6.063026E-3 0.617756  1.113E-4 8.13368 7923 550.30
527.27 1.000576 6.230064E-3 0.617721  1.114E-4 8.13284 7953 550.30
527.97 1.000576 6.235358E-3 0.617465  1.114E-4 8.13237 7983 550.35
528.63 1.000576 5.961582E-3 0.617570  1.113E-4 8.13166 8012 550.30
529.25 1.000576 6.155244E-3 0.617520  1.114E-4 8.13061 8042 550.30
529.86 1.000576 6.336919E-3 0.617206  1.115E-4 8.13055 8072 550.30
530.41 1.000576 6.120362E-3 0.617291  1.115E-4 8.12953 8101 550.30
530.93 1.000576 6.263597E-3 0.617117  1.115E-4 8.12694 8131 550.40
531.41 1.000576 6.111013E-3 0.617162  1.115E-4 8.12695 8161 550.40
531.86 1.000576 6.032881E-3 0.617104  1.114E-4 8.12748 8190 550.40
532.24 1.000576 6.239255E-3 0.616919  1.116E-4 8.12596 8220 550.40
532.59 1.000576 6.131257E-3 0.616993  1.115E-4 8.12533 8250 550.35
532.91 1.000576 6.141777E-3 0.616760  1.116E-4 8.12496 8280 550.30
533.23 1.000576 6.116690E-3 0.616860  1.115E-4 8.12226 8309 550.30
533.52 1.000576 6.163543E-3 0.616787  1.115E-4 8.12161 8339 550.20
533.81 1.000576 6.228957E-3 0.616631  1.116E-4 8.12177 8369 550.15
534.05 1.000576 6.137679E-3 0.616796  1.115E-4 8.12145 8398 550.15
534.24 1.000576 6.060443E-3 0.616488  1.115E-4 8.12025 8428 550.10
534.48 1.000576 6.204697E-3 0.616661  1.117E-4 8.11974 8458 550.10
534.72 1.000576 5.933525E-3 0.616622  1.116E-4 8.11885 8487 550.10
534.90 1.000576 6.140130E-3 0.616480  1.116E-4 8.11706 8517 550.10
