Nb
as received
Sample dimentions in mm: 0.7000 x 0.000 x 14.18
Photocell sensitivity 0.056 V/mm, Optic arm 328 mm
User: Iva
F 0 100.000 0.100 297 0 20 20 1.0E-1
20.11.2013, 11:23

T[K]   F[Hz]  Theta[rad]   Modulus  MaxStrain Center[mm] Time[s] TOven[K]
296.34 100.000000 3.997450E+0 2.725591  1.146E-5 8.22062 465 296.85
296.41 89.285714 3.812305E+0 1.914764  1.596E-5 8.21730 499 296.90
296.41 79.617834 3.586847E+0 1.255157  1.083E-5 8.21800 532 296.90
296.42 70.821530 3.390305E+0 0.778230  1.869E-5 8.21847 566 296.90
296.42 63.131313 3.322825E+0 0.462777  3.361E-5 8.22151 600 296.90
296.44 56.306306 3.277502E+0 0.224135  7.369E-5 8.21988 634 296.90
296.43 50.200803 3.115936E+0 0.038561  4.735E-4 8.22853 668 296.90
296.44 44.722719 1.605335E-1 0.114994  1.524E-4 8.22425 702 296.90
296.43 39.872408 1.305370E-1 0.233992  7.878E-5 8.21937 735 296.90
296.44 35.511364 9.889789E-2 0.326660  5.861E-5 8.18089 769 296.90
296.45 31.645570 9.635596E-2 0.402459  4.885E-5 8.22221 803 296.90
296.45 28.184893 9.388333E-2 0.463297  4.347E-5 8.22304 836 296.90
296.46 25.125628 8.694535E-2 0.510751  4.016E-5 8.21420 870 296.90
296.46 22.401434 7.984729E-2 0.550070  3.650E-5 8.19539 904 296.90
296.47 19.968051 6.927030E-2 0.552993  4.035E-5 8.23524 938 296.90
296.47 17.793594 6.053000E-2 0.592278  3.646E-5 8.21192 971 296.90
296.47 15.852885 5.374383E-2 0.611720  3.495E-5 8.21471 1005 296.95
296.47 14.132278 4.753611E-2 0.626305  3.515E-5 8.20804 1039 297.00
296.47 12.594458 4.204345E-2 0.637736  3.489E-5 8.22756 1073 296.95
296.45 11.220826 3.729852E-2 0.646816  3.412E-5 8.21628 1106 296.90
296.45 10.000000 3.323788E-2 0.654380  3.395E-5 8.21836 1140 297.00
296.47 8.912656 2.955594E-2 0.659664  3.363E-5 8.21800 1174 296.95
296.49 7.944074 2.632034E-2 0.664299  3.351E-5 8.21674 1208 297.00
296.42 7.080147 2.338639E-2 0.667840  3.353E-5 8.21651 1242 296.95
296.44 6.309944 2.100001E-2 0.670715  3.337E-5 8.21530 1275 296.90
296.48 5.624297 1.861815E-2 0.672965  3.327E-5 8.21408 1309 296.90
296.44 5.012029 1.659417E-2 0.674743  3.318E-5 8.21450 1343 297.00
296.45 4.467477 1.488843E-2 0.676258  3.315E-5 8.21491 1377 296.90
296.45 3.981526 1.316933E-2 0.677365  3.324E-5 8.21505 1411 296.95
296.46 3.548616 1.196608E-2 0.678301  3.321E-5 8.21309 1445 296.95
296.48 3.162555 1.065513E-2 0.678963  3.317E-5 8.21217 1479 296.95
296.48 2.818489 9.342907E-3 0.679392  3.309E-5 8.20989 1513 296.95
296.48 2.512058 8.707524E-3 0.680086  3.305E-5 8.20894 1547 296.90
296.46 2.238739 7.735478E-3 0.680558  3.310E-5 8.21484 1581 296.90
296.43 1.994613 7.346964E-3 0.681176  3.304E-5 8.21206 1615 297.00
296.43 1.779451 6.427495E-3 0.681534  3.308E-5 8.21399 1649 296.95
296.45 1.585329 5.417107E-3 0.681938  3.314E-5 8.21251 1683 296.95
296.48 1.412851 5.451913E-3 0.682025  3.319E-5 8.21142 1718 297.00
296.49 1.261057 4.413389E-3 0.682155  3.305E-5 8.21653 1752 296.95
296.50 1.121970 4.096715E-3 0.681735  3.317E-5 8.20994 1787 297.00
296.51 1.000576 3.503656E-3 0.682429  3.316E-5 8.21255 1821 296.95
296.52 0.892327 3.429281E-3 0.682381  3.316E-5 8.20752 1855 297.00
296.52 0.794729 3.318635E-3 0.682155  3.319E-5 8.20921 1889 297.00
296.52 0.706425 2.623008E-3 0.682228  3.317E-5 8.20985 1924 297.00
296.51 0.630528 2.111599E-3 0.682503  3.312E-5 8.21533 1959 296.95
296.52 0.563055 1.728443E-3 0.681127  3.320E-5 8.21954 1994 297.00
296.50 0.501934 2.149493E-3 0.682565  3.317E-5 8.20902 2030 297.00
296.50 0.446163 1.600914E-3 0.682644  3.319E-5 8.21278 2064 297.00
296.50 0.398402 1.554281E-3 0.683397  3.314E-5 8.20853 2098 297.00
296.47 0.354856 1.535007E-3 0.682806  3.322E-5 8.21311 2135 297.00
296.46 0.316572 1.415266E-3 0.682315  3.312E-5 8.19232 2171 296.95
296.49 0.281527 1.671629E-3 0.681193  3.314E-5 8.19483 2206 297.00
296.51 0.250967 1.932598E-3 0.683025  3.316E-5 8.20991 2244 297.00
296.53 0.223736 7.036749E-4 0.683411  3.316E-5 8.20163 2280 297.00
296.53 0.199722 1.712051E-4 0.682726  3.315E-5 8.20831 2314 297.00
296.49 0.177841 5.942371E-4 0.682506  3.322E-5 8.19778 2350 296.95
296.52 0.158615 1.899952E-3 0.682202  3.326E-5 8.22721 2390 296.95
296.53 0.141285 1.725368E-3 0.682171  3.318E-5 8.23065 2425 297.00
296.53 0.125898 5.203387E-4 0.682882  3.335E-5 8.20816 2463 297.00
296.54 0.112197 5.868614E-4 0.682433  3.326E-5 8.16148 2503 297.00
296.54 0.099992 1.118089E-3 0.682559  3.328E-5 8.20405 2537 297.00
